time, angle [deg]
0,238.059
0.257,237.905
0.268,237.905
0.278,237.927
0.288,237.883
0.298,237.883
0.308,237.905
0.32,237.883
0.333,237.883
0.343,237.927
0.353,237.883
0.363,237.883
0.373,237.905
0.387,237.883
0.397,237.927
0.408,237.927
0.418,237.905
0.428,237.949
0.439,237.883
0.449,237.905
0.459,237.927
0.469,237.795
0.48,237.949
0.49,237.839
0.5,237.883
0.51,237.905
0.521,237.905
0.531,237.883
0.541,237.971
0.551,237.883
0.561,237.905
0.571,237.883
0.582,237.883
0.592,237.927
0.602,237.883
0.612,237.883
0.622,237.905
0.632,237.927
0.643,237.861
0.653,237.883
0.663,237.949
0.673,237.905
0.683,237.927
0.693,237.883
0.704,237.905
0.714,237.839
0.724,237.861
0.734,237.927
0.744,237.905
0.754,237.861
0.764,237.927
0.775,237.905
0.785,237.905
0.795,237.883
0.805,237.905
0.815,237.905
0.825,237.883
0.836,237.883
0.846,237.905
0.856,237.905
0.866,237.949
0.876,237.905
0.886,237.861
0.896,237.861
0.907,237.883
0.917,237.883
0.927,237.861
0.937,237.905
0.947,237.927
0.958,237.861
0.968,237.861
0.978,237.905
0.988,237.883
0.998,237.905
1.008,237.905
1.018,237.905
1.029,237.927
1.039,237.861
1.049,237.927
1.059,237.927
1.069,237.927
1.079,237.949
1.089,237.883
1.099,237.949
1.11,237.927
1.12,237.839
1.13,237.839
1.14,237.905
1.15,237.883
1.16,237.861
1.17,237.927
1.181,237.861
1.191,237.817
1.201,237.883
1.211,237.927
1.221,237.905
1.231,237.927
1.241,237.927
1.252,237.817
1.262,237.927
1.272,237.927
1.282,237.927
1.292,237.927
1.302,237.883
1.312,237.905
1.322,237.839
1.333,237.927
1.343,237.949
1.353,237.927
1.363,237.905
1.373,237.839
1.383,237.927
1.393,237.883
1.404,237.905
1.414,237.883
1.424,237.883
1.434,237.905
1.444,237.817
1.454,237.883
1.465,237.905
1.475,237.839
1.485,237.905
1.495,237.839
1.505,237.905
1.515,237.949
1.525,237.927
1.535,237.927
1.546,237.861
1.556,237.883
1.566,237.905
1.576,237.927
1.586,237.927
1.596,237.905
1.607,237.905
1.617,237.883
1.627,237.927
1.637,237.905
1.647,237.861
1.657,237.905
1.667,237.927
1.678,237.883
1.688,237.861
1.698,237.839
1.708,237.905
1.718,237.883
1.728,237.883
1.738,237.927
1.748,237.883
1.759,237.949
1.769,237.905
1.779,237.883
1.789,237.949
1.799,237.905
1.809,237.949
1.819,237.927
1.83,237.949
1.84,237.883
1.85,237.927
1.86,237.949
1.87,237.883
1.88,237.927
1.891,237.883
1.901,237.927
1.911,237.883
1.921,237.861
1.931,237.927
1.941,237.905
1.951,237.861
1.962,237.861
1.972,237.883
1.982,237.883
1.992,237.927
2.002,237.927
2.012,237.927
2.023,237.905
2.033,237.905
2.043,237.905
2.053,237.905
2.063,237.905
2.073,237.905
2.083,237.883
2.093,237.949
2.104,237.861
2.114,237.905
2.124,237.927
2.134,237.905
2.144,237.817
2.154,237.839
2.164,237.883
2.175,237.905
2.185,237.883
2.195,237.905
2.205,237.927
2.215,237.905
2.225,237.927
2.235,237.927
2.246,237.905
2.256,237.949
2.266,237.905
2.276,237.795
2.286,236.806
2.296,233.598
2.306,227.291
2.317,222.303
2.327,220.676
2.337,219.687
2.347,220.72
2.357,223.665
2.367,229.027
2.378,237.026
2.388,249.354
2.398,266.627
2.408,284.581
2.418,298.755
2.428,313.215
2.438,330.773
2.449,346.573
2.459,358.484
2.469,377.382
2.479,392.787
2.489,406.61
2.499,424.739
2.51,442.122
2.52,454.736
2.53,473.041
2.54,490.687
2.55,505.411
2.56,523.409
2.571,541.912
2.581,558.591
2.591,579.314
2.601,599.004
2.611,615.595
2.621,635.505
2.631,652.953
2.642,665.677
2.652,684.62
2.662,701.255
2.672,714.462
2.682,731.999
2.692,748.48
2.702,762.83
2.713,779.949
2.723,798.496
2.733,812.604
2.743,830.712
2.753,848.995
2.764,864.62
2.774,882.464
2.784,901.56
2.794,918.327
2.804,939.578
2.814,959.443
2.824,976.87
2.835,996.801
2.845,1014.14
2.855,1027.39
2.865,1046.58
2.875,1063.06
2.885,1075.8
2.896,1094.39
2.906,1110.48
2.916,1124.76
2.926,1142.54
2.936,1160.65
2.946,1174.03
2.957,1192.4
2.967,1210.64
2.977,1225.61
2.987,1244.4
2.997,1262.94
3.007,1279.84
3.017,1301.14
3.028,1320.67
3.038,1337.92
3.048,1357.75
3.058,1374.76
3.068,1387.9
3.078,1407.08
3.088,1423.63
3.099,1436.4
3.109,1455.29
3.119,1471.31
3.129,1485.71
3.139,1503.97
3.149,1521.97
3.16,1535.15
3.17,1554.32
3.18,1572.38
3.19,1586.93
3.2,1606.66
3.21,1625.14
3.22,1642
3.231,1663.99
3.241,1683.2
3.251,1701.37
3.261,1721.02
3.271,1737.17
3.281,1752.14
3.291,1770.42
3.301,1786.66
3.312,1799.32
3.322,1818.83
3.332,1834.15
3.342,1848.57
3.352,1867.49
3.362,1884.8
3.372,1897.75
3.383,1917.94
3.393,1935.76
3.403,1949.85
3.413,1970.81
3.423,1988.81
3.433,2006.44
3.444,2028.94
3.454,2047.55
3.464,2067
3.474,2086.47
3.484,2101.35
3.494,2119.41
3.504,2136.66
3.515,2152.15
3.525,2168.22
3.535,2186.24
3.545,2201.16
3.555,2217.75
3.565,2236.47
3.576,2251.11
3.586,2267.75
3.596,2286.62
3.606,2303.08
3.616,2320.07
3.626,2339.41
3.637,2356.55
3.647,2377.07
3.657,2397.64
3.667,2415.33
3.677,2435.57
3.687,2453.3
3.697,2466.73
3.708,2485.98
3.718,2502.73
3.728,2515.58
3.738,2534.31
3.748,2550.77
3.758,2565.4
3.768,2583.64
3.779,2601.81
3.789,2615.26
3.799,2634.47
3.809,2652.67
3.819,2667.5
3.829,2687.58
3.839,2705.96
3.85,2722.96
3.86,2745.25
3.87,2764.04
3.88,2782.63
3.89,2802.25
3.9,2818.12
3.91,2833.61
3.921,2851.65
3.931,2867.89
3.941,2880.86
3.951,2900.57
3.961,2915.91
3.971,2930.98
3.982,2950.15
3.992,2966.67
4.002,2980.25
4.012,3000.89
4.022,3018.8
4.032,3034.14
4.042,3055.36
4.052,3073.49
4.063,3093.36
4.073,3115.14
4.083,3133.38
4.093,3153.9
4.103,3172.65
4.113,3186.64
4.123,3206.4
4.134,3223.65
4.144,3237.28
4.154,3257.05
4.164,3273.34
4.174,3288.15
4.184,3307.44
4.194,3324.91
4.205,3338.21
4.215,3358.38
4.225,3376.2
4.235,3390.2
4.245,3410.95
4.255,3428.77
4.266,3446.11
4.276,3468.04
4.286,3486.43
4.296,3505.18
4.306,3524.34
4.316,3539.35
4.326,3555.48
4.337,3573.12
4.347,3588.9
4.357,3602.18
4.367,3621.36
4.377,3636.3
4.387,3651.05
4.397,3670.19
4.408,3686.63
4.418,3700.16
4.428,3720.4
4.438,3738.33
4.448,3753.12
4.458,3774.29
4.469,3792.22
4.479,3811.12
4.489,3832.67
4.499,3850.63
4.509,3870.41
4.519,3889.2
4.529,3903.19
4.539,3921.68
4.55,3938.62
4.56,3953.01
4.57,3969.71
4.58,3987.03
4.59,4001.86
4.6,4018.92
4.611,4037.66
4.621,4052.25
4.631,4069.83
4.641,4088.58
4.651,4104.55
4.661,4122.77
4.671,4141.82
4.681,4158.9
4.692,4180.5
4.702,4200.54
4.712,4218.25
4.722,4238.43
4.732,4255.72
4.742,4270.2
4.752,4289.23
4.763,4305.83
4.773,4318.99
4.783,4338.83
4.793,4354.59
4.803,4369.62
4.813,4389.22
4.823,4406.41
4.834,4420.71
4.844,4441.19
4.854,4459.35
4.864,4474.49
4.874,4495.45
4.884,4513.1
4.894,4532.08
4.905,4553.42
4.915,4571.16
4.925,4590.54
4.935,4609.09
4.945,4622.6
4.955,4640.88
4.965,4657.8
4.976,4672.59
4.986,4688.88
4.996,4706.61
5.006,4721.67
5.016,4738.76
5.026,4757.53
5.036,4772.1
5.047,4789.63
5.057,4808.71
5.067,4824.82
5.077,4843.56
5.087,4862.59
5.097,4879.89
5.108,4901.64
5.118,4921.38
5.128,4939.18
5.138,4959.37
5.148,4976.1
5.158,4990.58
5.168,5009.12
5.179,5025.52
5.189,5037.96
5.199,5057.38
5.209,5073.01
5.219,5087.25
5.229,5105.9
5.239,5123.37
5.25,5136.23
5.26,5155.61
5.27,5173.59
5.28,5187.59
5.29,5207.67
5.3,5225.96
5.311,5242.77
5.321,5265.36
5.331,5284.52
5.341,5303.29
5.351,5322.91
5.361,5338.62
5.371,5354.66
5.382,5372.42
5.392,5388.55
5.402,5401.89
5.412,5421.29
5.422,5436.3
5.432,5451.05
5.442,5470.37
5.453,5486.87
5.463,5500.6
5.473,5520.71
5.483,5538.14
5.493,5552.27
5.503,5573.23
5.514,5590.92
5.524,5609.1
5.534,5631.09
5.544,5648.91
5.554,5668.52
5.564,5687.5
5.574,5702.03
5.585,5720.05
5.595,5737.28
5.605,5752.24
5.615,5768.64
5.625,5786.59
5.635,5801.67
5.645,5818.98
5.656,5838.08
5.666,5852.52
5.676,5870.95
5.686,5889.85
5.696,5905.87
5.706,5925.39
5.716,5944.04
5.727,5961.32
5.737,5983.58
5.747,6002.98
5.757,6021.62
5.767,6048.05
5.777,6075.43
5.787,6102.6
5.798,6127.98
5.808,6161.27
5.818,6198.65
5.828,6241.17
5.838,6288.07
5.848,6340.08
5.858,6395.99
5.868,6452.31
5.879,6511.56
5.889,6573.61
5.899,6637.67
5.909,6699.49
5.919,6764.14
5.929,6823.58
5.939,6880.02
5.95,6933.97
5.96,6984.51
5.97,7031.54
5.98,7078.21
5.99,7122.1
6,7161.7
6.01,7199.19
6.021,7236.54
6.031,7272.47
6.041,7306.05
6.051,7339.19
6.061,7370.55
6.071,7400.66
6.082,7432.63
6.092,7462.43
6.102,7490.71
6.112,7515.96
6.122,7540.84
6.132,7563.71
6.142,7588.13
6.152,7609.82
6.163,7634.14
6.173,7654.78
6.183,7678.43
6.193,7700.27
6.203,7721.34
6.213,7743.63
6.223,7764.37
6.234,7789.22
6.244,7810.63
6.254,7832.85
6.264,7853.7
6.274,7871.06
6.284,7891.78
6.295,7910
6.305,7927.71
6.315,7947.45
6.325,7964.04
6.335,7983.4
6.345,8002.76
6.356,8017.88
6.366,8038.97
6.376,8057.85
6.386,8074.18
6.396,8095.87
6.406,8114.46
6.416,8135.27
6.427,8157.25
6.437,8175.99
6.447,8197.28
6.457,8215.74
6.467,8231.9
6.477,8251.43
6.487,8268.57
6.498,8284.18
6.508,8303.82
6.518,8319.56
6.528,8336.83
6.538,8356.43
6.548,8372.08
6.559,8390.49
6.569,8409.87
6.579,8425.98
6.589,8446.07
6.599,8465.01
6.609,8482.72
6.619,8505.38
6.63,8524.89
6.64,8544.25
6.65,8564.25
6.66,8580.01
6.67,8597.46
6.68,8615.19
6.69,8630.92
6.701,8646.68
6.711,8665.16
6.721,8680.28
6.731,8697.05
6.741,8716.1
6.751,8731.22
6.761,8748.29
6.772,8767.24
6.782,8783.46
6.792,8800.99
6.802,8820.57
6.812,8838.09
6.822,8859.89
6.832,8880.39
6.843,8898.54
6.853,8919.04
6.863,8936.14
6.873,8951.28
6.883,8976.38
6.893,9005.01
6.903,9034.02
6.914,9061.77
6.924,9093.07
6.934,9126.6
6.944,9157.21
6.954,9188.02
6.964,9219.53
6.975,9254.69
6.985,9288.51
6.995,9318.6
7.005,9349.94
7.015,9382.26
7.025,9412.52
7.035,9443.04
7.046,9471.72
7.056,9499.57
7.066,9527.32
7.076,9563.03
7.086,9604.74
7.096,9645.97
7.106,9683.61
7.117,9718.95
7.127,9753.69
7.137,9786.89
7.147,9817.57
7.157,9849.41
7.167,9878.11
7.178,9907.67
7.188,9937.05
7.198,9966.59
7.208,9994.87
7.218,10020.4
7.228,10045.8
7.238,10069.3
7.249,10092.8
7.259,10115.7
7.269,10137.9
7.279,10161.2
7.289,10180.9
7.299,10204.6
7.31,10224.9
7.32,10247.4
7.33,10268.6
7.34,10289.8
7.35,10313.8
7.36,10334.1
7.37,10356.3
7.381,10375.5
7.391,10392.9
7.401,10412.4
7.411,10429.9
7.421,10446.7
7.431,10466
7.441,10482.2
7.452,10500.7
7.462,10520.3
7.472,10535.2
7.482,10555.5
7.492,10574.6
7.502,10590.2
7.512,10611.8
7.523,10630.4
7.533,10649.2
7.543,10671.3
7.553,10689.9
7.563,10709.9
7.573,10728.9
7.584,10743.3
7.594,10762.2
7.604,10779.5
7.614,10794
7.624,10811.7
7.634,10828.9
7.644,10843.7
7.655,10861.7
7.665,10880.5
7.675,10894.5
7.685,10913.5
7.695,10931.9
7.705,10946.7
7.715,10966.6
7.726,10984.8
7.736,11001.8
7.746,11024
7.756,11043.4
7.766,11062.3
7.776,11082.4
7.786,11098.6
7.797,11115.2
7.807,11133.5
7.817,11150
7.827,11165.3
7.837,11184.3
7.847,11199.6
7.857,11216.3
7.868,11235.6
7.878,11250.8
7.888,11267.9
7.898,11287.1
7.908,11303.9
7.918,11322.5
7.929,11341.8
7.939,11359.2
7.949,11381.2
7.959,11401.2
7.969,11419.7
7.979,11440.1
7.99,11457.2
8,11473
8.01,11491.6
8.02,11508.2
8.03,11522.4
8.04,11541.8
8.051,11557.3
8.061,11572.7
8.071,11592
8.081,11607.9
8.091,11622
8.101,11642.1
8.111,11659.8
8.122,11674.8
8.132,11695.9
8.142,11713.5
8.152,11733.2
8.162,11754.6
8.172,11772.6
8.183,11792.4
8.193,11811
8.203,11824.4
8.213,11843.8
8.223,11860.8
8.233,11874.8
8.243,11893.2
8.254,11910.3
8.264,11925.1
8.274,11943.4
8.284,11961.4
8.294,11974.6
8.304,11993.8
8.314,12012
8.325,12026.9
8.335,12046.6
8.345,12065.3
8.355,12082.3
8.365,12104.6
8.375,12123.8
8.385,12142.4
8.395,12162.5
8.406,12178.7
8.416,12195.2
8.426,12213.1
8.436,12229.4
8.446,12243.9
8.456,12263.2
8.467,12278.3
8.477,12294.2
8.487,12313.6
8.497,12329
8.507,12344.3
8.517,12364
8.527,12381.1
8.537,12397.1
8.548,12417.4
8.558,12435
8.568,12455.1
8.578,12475.9
8.588,12493.6
8.598,12513.4
8.609,12531.6
8.619,12544.8
8.629,12563.9
8.639,12580.8
8.649,12594.5
8.659,12612.5
8.669,12629.5
8.68,12644.4
8.69,12662.3
8.7,12680.6
8.71,12694.1
8.72,12713.3
8.73,12731.8
8.74,12747.1
8.751,12768
8.761,12793.3
8.771,12824.4
8.781,12859.4
8.791,12893.2
8.801,12924.1
8.811,12953
8.822,12982.6
8.832,13009.6
8.842,13037.5
8.852,13062.1
8.862,13088.8
8.872,13111.8
8.882,13138
8.893,13161.5
8.903,13188.4
8.913,13212.2
8.923,13236.9
8.933,13258.7
8.943,13280.3
8.953,13301.4
8.964,13319.5
8.974,13342.1
8.984,13361
8.994,13381.1
9.004,13401.8
9.014,13418.6
9.024,13440.7
9.035,13460
9.045,13477.8
9.055,13499.2
9.065,13517.7
9.075,13540.1
9.085,13561.2
9.096,13580.6
9.106,13601.6
9.116,13618.6
9.126,13636.3
9.136,13654.8
9.146,13671.5
9.156,13688.4
9.167,13707.1
9.177,13722.8
9.187,13741
9.197,13760.2
9.207,13774.6
9.217,13793.9
9.227,13812.4
9.238,13827.4
9.248,13847.5
9.258,13865.7
9.268,13882.6
9.278,13904.8
9.288,13923.8
9.298,13942.3
9.309,13962
9.319,13977.9
9.329,13993.7
9.339,14011.9
9.349,14028.3
9.359,14042
9.369,14061.7
9.38,14077.2
9.39,14092.8
9.4,14112.4
9.41,14128.8
9.42,14144.4
9.43,14164.1
9.44,14181.5
9.451,14197.5
9.461,14217.9
9.471,14235.3
9.481,14255.5
9.491,14276.7
9.501,14294.4
9.511,14315
9.522,14333.2
9.532,14347.3
9.542,14367
9.552,14384.3
9.562,14397.8
9.572,14417.6
9.582,14433.7
9.593,14448.6
9.603,14467.8
9.613,14485.1
9.623,14498.6
9.633,14519
9.643,14537.1
9.653,14551.9
9.664,14573.4
9.674,14591.6
9.684,14610.9
9.694,14632.8
9.704,14651.2
9.714,14671.3
9.725,14690.3
9.735,14704.3
9.745,14723.5
9.755,14740.8
9.765,14754.9
9.775,14773.5
9.785,14790.5
9.795,14805.4
9.806,14823.7
9.816,14841.8
9.826,14855.2
9.836,14874.3
9.846,14892.6
9.856,14907.3
9.867,14927.4
9.877,14945.7
9.887,14962.6
9.897,14984.6
9.907,15003.5
9.917,15021.6
9.927,15041.2
9.938,15057.3
9.948,15072.2
9.958,15090.4
9.968,15106.7
9.978,15119.3
9.988,15138.7
9.998,15154
10.009,15168.4
10.019,15187.4
10.029,15204.5
10.039,15217.5
10.049,15237.3
10.059,15255.3
10.069,15269.2
10.08,15290.4
10.09,15308.5
10.1,15326.4
10.11,15348.4
10.12,15366.9
10.13,15386
10.141,15405.3
10.151,15420.4
10.161,15437.6
10.171,15454.9
10.181,15470.5
10.191,15485.4
10.201,15504.1
10.212,15519.1
10.222,15535.4
10.232,15554.6
10.242,15570.1
10.252,15586.6
10.262,15606.2
10.273,15623.2
10.283,15641
10.293,15660.8
10.303,15678.6
10.313,15700.3
10.323,15720.6
10.333,15739
10.344,15759.8
10.354,15776.8
10.364,15792.5
10.374,15811
10.384,15827.6
10.395,15841.3
10.405,15861.1
10.415,15876.6
10.425,15892.1
10.435,15911.6
10.445,15928
10.455,15942.9
10.466,15963.3
10.476,15981
10.486,15997.1
10.496,16017.9
10.506,16035.6
10.516,16056.5
10.527,16077.4
10.537,16095.4
10.547,16116.2
10.557,16134.6
10.567,16149.1
10.577,16168.6
10.587,16185.6
10.598,16199.3
10.608,16219.4
10.618,16235.3
10.628,16250.7
10.638,16270.3
10.648,16287.4
10.659,16302
10.669,16322.3
10.679,16339.9
10.689,16355.2
10.699,16376
10.709,16393.6
10.719,16412.9
10.73,16433.9
10.74,16451.7
10.75,16471.5
10.76,16490.3
10.77,16503.9
10.78,16522.9
10.79,16539.8
10.8,16553.8
10.811,16571.3
10.821,16588.6
10.831,16603.5
10.841,16621.3
10.851,16640
10.861,16653.8
10.872,16672.5
10.882,16691.1
10.892,16706.2
10.902,16725.6
10.912,16743.8
10.922,16760.6
10.932,16782.1
10.943,16801.6
10.953,16819
10.963,16838.8
10.973,16855.3
10.983,16868.8
10.993,16887.7
11.004,16904.2
11.014,16916.6
11.024,16935.5
11.034,16951.4
11.044,16965.6
11.054,16983.6
11.064,17001.4
11.075,17014.5
11.085,17033
11.095,17051.2
11.105,17066
11.115,17085
11.125,17103.5
11.135,17120.1
11.146,17142.2
11.156,17162
11.166,17180.5
11.176,17200.4
11.186,17217.1
11.196,17232.1
11.206,17250.7
11.217,17267.1
11.227,17280.1
11.237,17299.3
11.247,17314.5
11.257,17328.7
11.267,17347.9
11.277,17365.2
11.288,17378.6
11.298,17398.9
11.308,17417.1
11.318,17431.6
11.328,17452.9
11.338,17470.9
11.348,17489.4
11.359,17511.5
11.369,17529.7
11.379,17549.4
11.389,17568.4
11.399,17582.4
11.409,17600.8
11.419,17617.7
11.43,17632.5
11.44,17648.9
11.45,17666.6
11.46,17681.3
11.47,17698.2
11.48,17717.2
11.491,17731.8
11.501,17749.4
11.511,17768.3
11.521,17784.6
11.531,17803.4
11.541,17822.5
11.551,17839.8
11.562,17862
11.572,17881.8
11.582,17900.3
11.592,17920.3
11.602,17937
11.612,17952
11.622,17970.8
11.633,17987.2
11.643,18000.7
11.653,18020.2
11.663,18035.6
11.673,18050.5
11.683,18069.8
11.694,18086.5
11.704,18100.3
11.714,18120.7
11.724,18138.8
11.734,18153.7
11.744,18175.1
11.754,18192.9
11.765,18212.6
11.775,18234.5
11.785,18252.8
11.795,18273.3
11.805,18292.1
11.815,18306.2
11.825,18326
11.836,18343.4
11.846,18357
11.856,18376.7
11.866,18392.9
11.876,18408
11.886,18427.3
11.897,18445.1
11.907,18459
11.917,18479.5
11.927,18497.4
11.937,18511.9
11.947,18533.1
11.957,18551.1
11.968,18569.6
11.978,18591.3
11.988,18609.4
11.998,18629
12.008,18648.2
12.018,18662.5
12.028,18680.9
12.039,18698.2
12.049,18712.9
12.059,18730
12.069,18747.5
12.079,18762.5
12.089,18780
12.1,18798.7
12.11,18813
12.12,18831.4
12.13,18850.1
12.14,18865.8
12.15,18885.4
12.16,18904.2
12.171,18921.7
12.181,18944.2
12.191,18963.6
12.201,18982.5
12.211,19002.4
12.221,19018.5
12.232,19035
12.242,19053.3
12.252,19069.8
12.262,19085.3
12.272,19104.5
12.282,19120
12.292,19137
12.303,19156.4
12.313,19171.7
12.323,19189.7
12.333,19208.5
12.343,19224.7
12.353,19243.4
12.363,19262.5
12.374,19279.9
12.384,19301.8
12.394,19321.8
12.404,19340.2
12.414,19360.4
12.424,19377.3
12.434,19393
12.445,19411.7
12.455,19428.3
12.465,19442.5
12.475,19461.9
12.485,19477.5
12.495,19493
12.506,19512.5
12.516,19528.7
12.526,19544.1
12.536,19563.7
12.546,19580.9
12.556,19596.5
12.567,19617.1
12.577,19634.7
12.587,19654.9
12.597,19675.9
12.607,19693.8
12.617,19714.1
12.627,19732.6
12.638,19746.2
12.648,19765.8
12.658,19783
12.668,19796.4
12.678,19815.8
12.688,19832.2
12.698,19847
12.709,19866
12.719,19883.8
12.729,19897.4
12.739,19917.7
12.749,19936
12.759,19950.6
12.77,19972
12.78,19990.3
12.79,20009
12.8,20031.1
12.81,20049.6
12.82,20069.6
12.83,20088.7
12.841,20103.2
12.851,20122.1
12.861,20139.2
12.871,20153.6
12.881,20171
12.891,20188.5
12.901,20203.5
12.912,20221.3
12.922,20239.8
12.932,20253.5
12.942,20271.8
12.952,20290.3
12.962,20305.7
12.972,20324.9
12.983,20343.6
12.993,20360.7
13.003,20382.8
13.013,20402.7
13.023,20421.1
13.033,20441
13.043,20457.5
13.054,20473.1
13.064,20491.3
13.074,20507.8
13.084,20521
13.094,20540.8
13.104,20556.3
13.114,20571.7
13.125,20591.3
13.135,20607.6
13.145,20622.4
13.155,20642.8
13.165,20660.7
13.175,20676.7
13.185,20697.5
13.196,20715.4
13.206,20736
13.216,20757.6
13.226,20776
13.236,20797
13.246,20815.2
13.257,20830.6
13.267,20849.9
13.277,20866.9
13.287,20880.5
13.297,20900.4
13.307,20915.9
13.317,20931.1
13.328,20951
13.338,20967.5
13.348,20982.6
13.358,21002.9
13.368,21020.8
13.378,21037.4
13.388,21058.1
13.399,21076.2
13.409,21097.3
13.419,21118.6
13.429,21137.2
13.439,21157.9
13.449,21175.6
13.459,21190.7
13.47,21209.8
13.48,21226.4
13.49,21239.8
13.5,21259.3
13.51,21275.1
13.52,21289.8
13.53,21309.3
13.54,21326.2
13.551,21339.9
13.561,21360
13.571,21377.7
13.581,21391.6
13.591,21412.5
13.601,21429.9
13.611,21447.2
13.622,21468.9
13.632,21486.8
13.642,21505.3
13.652,21524.1
13.662,21539.1
13.672,21554.6
13.682,21572.1
13.693,21588.1
13.703,21600.8
13.713,21620
13.723,21635
13.733,21649.1
13.743,21667.8
13.754,21684.5
13.764,21696.8
13.774,21716.2
13.784,21733.8
13.794,21747.6
13.804,21767.3
13.814,21785.5
13.825,21802.1
13.835,21824.1
13.845,21843.3
13.855,21861.6
13.865,21881.4
13.875,21897.6
13.885,21913.3
13.896,21931.7
13.906,21948.2
13.916,21962.2
13.926,21981.9
13.936,21997.5
13.946,22013.1
13.956,22032.5
13.967,22048.6
13.977,22063.7
13.987,22083.7
13.997,22101.1
14.007,22117.3
14.017,22137.8
14.027,22155.6
14.038,22176.1
14.048,22197.2
14.058,22214.9
14.068,22235.5
14.078,22253.5
14.088,22267.5
14.098,22286.9
14.109,22303.9
14.119,22317.2
14.129,22336.5
14.139,22352.4
14.149,22366.7
14.159,22385.2
14.17,22402.9
14.18,22415.9
14.19,22435
14.2,22453
14.21,22467.1
14.22,22487.2
14.23,22505.5
14.241,22522.9
14.251,22544.7
14.261,22563.2
14.271,22581
14.281,22600.6
14.291,22616.6
14.302,22630.8
14.312,22649.3
14.322,22665.6
14.332,22677.8
14.342,22697.2
14.352,22712.7
14.363,22726.9
14.373,22745.1
14.383,22762.7
14.393,22775.6
14.403,22794.6
14.413,22812.5
14.424,22826.9
14.434,22846.3
14.444,22864.2
14.454,22880.8
14.464,22902.7
14.474,22922.1
14.484,22939.9
14.495,22959.7
14.505,22976.2
14.515,22990.2
14.525,23009.2
14.535,23025.7
14.545,23038.8
14.555,23058.5
14.566,23074.1
14.576,23088.8
14.586,23108
14.596,23125.3
14.606,23138.9
14.616,23159.5
14.626,23177.5
14.637,23192.3
14.647,23213.3
14.657,23231.2
14.667,23249.2
14.677,23270.7
14.687,23288.3
14.698,23307.4
14.708,23326
14.718,23340.5
14.728,23357.2
14.738,23374.5
14.748,23390.1
14.758,23404.2
14.769,23422.9
14.779,23437.7
14.789,23452.7
14.799,23472.1
14.809,23488.1
14.819,23502.5
14.829,23522.6
14.84,23540.3
14.85,23555.7
14.86,23576.4
14.87,23594.1
14.88,23613.9
14.89,23635.4
14.901,23653.3
14.911,23673.3
14.921,23691.7
14.931,23705.1
14.941,23724.4
14.951,23741.3
14.961,23754.7
14.972,23772.8
14.982,23789.7
14.992,23804.2
15.002,23822.4
15.012,23840.9
15.022,23854.7
15.033,23873.7
15.043,23892
15.053,23906.8
15.063,23926.5
15.073,23945
15.083,23962.3
15.093,23984.7
15.104,24003.8
15.114,24022.7
15.124,24042.2
15.134,24058.1
15.144,24073.9
15.154,24092.2
15.164,24108.7
15.175,24122.8
15.185,24142.1
15.195,24157.4
15.205,24172.9
15.215,24192.7
15.225,24208.7
15.236,24223.8
15.246,24243.8
15.256,24261.1
15.266,24277.1
15.276,24297.6
15.286,24315.4
15.296,24335.6
15.307,24356.6
15.317,24374.6
15.327,24394.8
15.337,24413
15.347,24426.6
15.357,24446.1
15.367,24462.9
15.378,24476.2
15.388,24495.2
15.398,24511.6
15.408,24526
15.418,24544.6
15.428,24562.6
15.438,24575.9
15.449,24595.7
15.459,24613.9
15.469,24628.4
15.479,24649.2
15.489,24667.4
15.499,24685
15.509,24707.8
15.52,24727
15.53,24746.8
15.54,24766.6
15.55,24781.7
15.56,24800.2
15.57,24817.6
15.58,24832.9
15.591,24850.2
15.601,24867.9
15.611,24883.1
15.621,24901
15.631,24919.8
15.641,24933.9
15.652,24953.2
15.662,24971.9
15.672,24987.3
15.682,25007.8
15.692,25026.6
15.702,25044.2
15.712,25066.6
15.723,25085.6
15.733,25104.8
15.743,25124.4
15.753,25139.9
15.763,25157.1
15.773,25174.6
15.783,25190.5
15.794,25205.5
15.804,25224.2
15.814,25239.2
15.824,25255.1
15.834,25274.2
15.844,25289.5
15.854,25304.8
15.865,25324.6
15.875,25341.7
15.885,25358.2
15.895,25378.4
15.905,25396
15.915,25416.4
15.925,25437.2
15.936,25455
15.946,25475.3
15.956,25493.6
15.966,25507.4
15.976,25527
15.986,25543.9
15.997,25557.1
16.007,25576.6
16.017,25592.6
16.027,25607.2
16.037,25626.2
16.047,25643.8
16.057,25657.2
16.068,25677.5
16.078,25695.9
16.088,25710.4
16.098,25731.9
16.108,25750.2
16.118,25768.8
16.129,25790.7
16.139,25809.1
16.149,25828.8
16.159,25847.8
16.169,25862.3
16.179,25880.8
16.189,25898.1
16.2,25913
16.21,25930.1
16.22,25947.6
16.23,25962.5
16.24,25980.1
16.25,25998.8
16.26,26013.1
16.271,26031.8
16.281,26050.3
16.291,26066
16.301,26085.3
16.311,26104.3
16.321,26121.7
16.331,26144.3
16.342,26163.7
16.352,26182.8
16.362,26202.7
16.372,26219
16.382,26235.6
16.392,26253.7
16.402,26269.8
16.413,26284.8
16.423,26303.8
16.433,26319.1
16.443,26335.4
16.453,26354.8
16.463,26370.3
16.473,26386.8
16.484,26406
16.494,26422.9
16.504,26440.2
16.514,26460.3
16.524,26477.7
16.534,26499.2
16.544,26519.5
16.555,26537.6
16.565,26558.1
16.575,26575.7
16.585,26590.5
16.595,26609.5
16.605,26626.1
16.615,26639.1
16.626,26658.5
16.636,26674.1
16.646,26688.5
16.656,26707.4
16.666,26724.4
16.676,26737.3
16.686,26757.4
16.697,26775.7
16.707,26790.2
16.717,26811.4
16.727,26829.6
16.737,26848
16.747,26870.5
16.758,26889.2
16.768,26909.3
16.778,26928.9
16.788,26943.6
16.798,26962.7
16.808,26980.2
16.818,26994.5
16.829,27013.1
16.839,27030.3
16.849,27045.5
16.859,27064.6
16.869,27082.9
16.879,27096.7
16.89,27116.8
16.9,27135
16.91,27149.6
16.92,27170.8
16.93,27188.9
16.94,27206.8
16.95,27229.2
16.96,27247.7
16.971,27267.3
16.981,27286.4
16.991,27301.2
17.001,27318.9
17.011,27335.8
17.021,27351.1
17.031,27366.3
17.042,27384.6
17.052,27399.6
17.062,27415.8
17.072,27434.9
17.082,27450
17.092,27466.1
17.103,27485.7
17.113,27502.6
17.123,27519.6
17.133,27539.3
17.143,27556.8
17.153,27577.4
17.163,27598.2
17.174,27615.8
17.184,27636.4
17.194,27654.2
17.204,27668.3
17.214,27687.6
17.224,27704.5
17.234,27717.5
17.245,27737
17.255,27753.2
17.265,27767.9
17.275,27787.1
17.285,27804.9
17.295,27818.4
17.305,27838.7
17.316,27856.8
17.326,27871
17.336,27892.3
17.346,27909.9
17.356,27927.9
17.366,27949.7
17.376,27967.8
17.387,27987
17.397,28006
17.407,28020.6
17.417,28037.7
17.427,28054.8
17.437,28070.3
17.447,28084.7
17.458,28103.4
17.468,28118.2
17.478,28133.4
17.488,28152.8
17.498,28168.6
17.508,28183.3
17.519,28203.2
17.529,28220.5
17.539,28236.1
17.549,28256.6
17.559,28274.2
17.569,28293.6
17.579,28314.5
17.589,28332.1
17.6,28351.8
17.61,28370.2
17.62,28383.5
17.63,28401.8
17.64,28418.4
17.65,28432.6
17.661,28448.6
17.671,28466
17.681,28480.3
17.691,28496
17.701,28514.4
17.711,28529.1
17.721,28543.3
17.732,28563.1
17.742,28580.3
17.752,28595.4
17.762,28616
17.772,28633.5
17.782,28652.4
17.792,28673.6
17.803,28691
17.813,28710.5
17.823,28728.8
17.833,28742.2
17.843,28759.9
17.853,28776.7
17.863,28791.5
17.874,28806.4
17.884,28824.6
17.894,28839.2
17.904,28854.9
17.914,28874.1
17.924,28889.7
17.934,28905.5
17.945,28924.9
17.955,28941.9
17.965,28958.2
17.975,28978.5
17.985,28995.8
17.995,29016.3
18.005,29036.9
18.016,29054.6
18.026,29074.7
18.036,29092.9
18.046,29106.2
18.056,29125.4
18.066,29142.1
18.077,29155.2
18.087,29173.4
18.097,29189.9
18.107,29204.1
18.117,29222.1
18.127,29240.5
18.137,29254.3
18.148,29273.5
18.158,29292.1
18.168,29307.3
18.178,29327.5
18.188,29345.9
18.198,29363
18.208,29385.3
18.219,29404.2
18.229,29422.9
18.239,29442.7
18.249,29458.5
18.259,29474.8
18.269,29492.8
18.279,29509
18.29,29523.3
18.3,29542.6
18.31,29557.9
18.32,29573.4
18.33,29592.6
18.34,29608.4
18.351,29622.8
18.361,29642.6
18.371,29659.9
18.381,29674.5
18.391,29695.1
18.401,29712.5
18.411,29731.1
18.422,29752.5
18.432,29770
18.442,29789.5
18.452,29808.4
18.462,29822.5
18.472,29840.7
18.483,29857.3
18.493,29872
18.503,29887.7
18.513,29905.7
18.523,29920.4
18.533,29936.9
18.543,29955.9
18.554,29971.1
18.564,29988.2
18.574,30007.6
18.584,30024.3
18.594,30042.7
18.604,30062.1
18.614,30079.3
18.625,30100.9
18.635,30120.8
18.645,30138.9
18.655,30159.3
18.665,30176.2
18.675,30191.4
18.686,30210.4
18.696,30227
18.706,30240.6
18.716,30260.3
18.726,30275.9
18.736,30291
18.746,30310.6
18.757,30327.2
18.767,30341.4
18.777,30361.9
18.787,30379.7
18.797,30395.4
18.807,30416.5
18.817,30434.6
18.828,30454.9
18.838,30476.5
18.848,30494.7
18.858,30515.5
18.868,30534
18.878,30548.6
18.888,30573.3
18.899,30601.7
18.909,30632.3
18.919,30661.5
18.929,30698.2
18.939,30735.7
18.949,30771.1
18.959,30804.6
18.97,30839.7
18.98,30873
18.99,30902.5
19,30931.5
19.01,30957.6
19.02,30985.7
19.031,31010.7
19.041,31037.7
19.051,31061.1
19.061,31087.8
19.071,31117.8
19.081,31154.8
19.091,31196.3
19.102,31237.2
19.112,31273.8
19.122,31308.9
19.132,31342.7
19.142,31374.2
19.152,31405.8
19.162,31435.5
19.173,31463.8
19.183,31492.2
19.193,31518.9
19.203,31548
19.213,31574.2
19.223,31600.9
19.234,31623.3
19.244,31647.6
19.254,31669.6
19.264,31691.9
19.274,31713.6
19.284,31734.5
19.294,31757.4
19.305,31776.4
19.315,31799.6
19.325,31820.5
19.335,31840.9
19.345,31862.9
19.355,31882.8
19.365,31907.4
19.376,31928.4
19.386,31950.1
19.396,31970.6
19.406,31986.4
19.416,32006.9
19.426,32025.2
19.436,32040.3
19.447,32060.9
19.457,32077.3
19.467,32094.2
19.477,32114.2
19.487,32130.6
19.497,32148.2
19.507,32167.9
19.518,32184.7
19.528,32204.2
19.538,32223.7
19.548,32241.7
19.558,32264.4
19.568,32284
19.579,32303.7
19.589,32324
19.599,32340
19.609,32357.7
19.619,32375.5
19.629,32391.3
19.639,32407.5
19.65,32425.8
19.66,32441.1
19.67,32458
19.68,32477.1
19.69,32491.8
19.7,32509.6
19.71,32528.9
19.721,32545.1
19.731,32564.4
19.741,32583.7
19.751,32601.4
19.761,32623.6
19.771,32643.2
19.781,32661.7
19.791,32681.6
19.802,32697.7
19.812,32713.3
19.822,32731.3
19.832,32747.5
19.842,32760.5
19.852,32780
19.863,32795.1
19.873,32809.3
19.883,32828.2
19.893,32844.9
19.903,32857.7
19.913,32877.9
19.923,32896.2
19.934,32910.8
19.944,32932
19.954,32950
19.964,32968.5
19.974,32990.5
19.984,33008.9
19.994,33028.5
20.005,33047.7
20.015,33062.2
20.025,33080.6
20.035,33097.9
20.045,33112.8
20.055,33129.7
20.065,33147.2
20.076,33162.1
20.086,33179.3
20.096,33197.9
20.106,33212.2
20.116,33229.7
20.126,33248.4
20.136,33264.6
20.147,33282.7
20.157,33302
20.167,33319
20.177,33340.9
20.187,33360.8
20.197,33378.9
20.207,33399.2
20.218,33416.4
20.228,33431.6
20.238,33450.2
20.248,33466.6
20.258,33480
20.268,33499.7
20.278,33515.5
20.289,33530.5
20.299,33550.2
20.309,33567
20.319,33581.5
20.329,33602.1
20.339,33619.9
20.349,33635.9
20.36,33657
20.37,33675
20.38,33695.8
20.39,33717.1
20.4,33735.5
20.41,33756.6
20.421,33774.9
20.431,33790
20.441,33809.5
20.451,33826.6
20.461,33840.7
20.471,33860.6
20.481,33876.6
20.492,33892.3
20.502,33912.3
20.512,33928.6
20.522,33944.3
20.532,33964.8
20.542,33982.6
20.553,34000.3
20.563,34020.4
20.573,34038
20.583,34059.7
20.593,34080.2
20.603,34098.6
20.613,34119.2
20.624,34136.5
20.634,34152.1
20.644,34171.1
20.654,34187.8
20.664,34202.1
20.674,34222.1
20.685,34238
20.695,34254.6
20.705,34274.2
20.715,34290
20.725,34306.6
20.735,34326
20.745,34342.9
20.756,34360.1
20.766,34381.9
20.776,34408.1
20.786,34436.4
20.796,34461.9
20.806,34487.5
20.816,34508.8
20.827,34532.7
20.837,34553.5
20.847,34576.2
20.857,34596.7
20.867,34617.6
20.877,34639.7
20.887,34657.8
20.898,34680.7
20.908,34700.9
20.918,34720.8
20.928,34742.7
20.938,34762.4
20.948,34786.6
20.958,34807.4
20.969,34828.6
20.979,34849
20.989,34864.6
20.999,34885
21.009,34903
21.019,34917.5
21.03,34937.9
21.04,34954.6
21.05,34970.6
21.06,34990.7
21.07,35007.6
21.08,35023
21.091,35043.4
21.101,35061.1
21.111,35077.4
21.121,35097.8
21.131,35115.1
21.141,35135
21.151,35156
21.162,35173.8
21.172,35193.9
21.182,35212.3
21.192,35225.6
21.202,35244.9
21.213,35261.8
21.223,35275.2
21.233,35293.8
21.243,35310.5
21.253,35325.1
21.263,35343.3
21.273,35361.4
21.284,35374.7
21.294,35393.8
21.304,35412.1
21.314,35426.8
21.324,35446.7
21.334,35465.1
21.344,35482.2
21.355,35504.5
21.365,35523.7
21.375,35542.5
21.385,35562
21.395,35578.1
21.405,35593.8
21.416,35611.9
21.426,35628.1
21.436,35641.9
21.446,35661.2
21.456,35676.6
21.466,35691.6
21.476,35710.8
21.487,35727.3
21.497,35741.4
21.507,35761.5
21.517,35779
21.527,35793.4
21.537,35814.6
21.547,35832.2
21.558,35851.1
21.568,35872.7
21.578,35890.5
21.588,35910.2
21.598,35928.8
21.608,35942.8
21.619,35961
21.629,35978
21.639,35992.4
21.649,36008.6
21.659,36026.4
21.669,36041.1
21.679,36057.9
21.69,36077
21.7,36091.7
21.71,36109.2
21.72,36128.1
21.73,36144.4
21.74,36162.9
21.751,36182.4
21.761,36199.8
21.771,36221.8
21.781,36241.7
21.791,36260
21.801,36279.8
21.811,36296.6
21.822,36311
21.832,36329.6
21.842,36346
21.852,36358.4
21.862,36377.6
21.872,36393.2
21.882,36407.5
21.893,36426.1
21.903,36443.6
21.913,36456.3
21.923,36475.9
21.933,36493.9
21.943,36508.2
21.953,36528.7
21.964,36547
21.974,36564.3
21.984,36586.7
21.994,36605.7
22.004,36624.7
22.014,36644
22.025,36659.6
22.035,36676.2
22.045,36693.8
22.055,36709.8
22.065,36724.1
22.075,36743.1
22.085,36758.2
22.096,36773.8
22.106,36792.9
22.116,36808.8
22.126,36823.5
22.136,36843.4
22.146,36860.9
22.156,36876.8
22.167,36897.4
22.177,36915.1
22.187,36935.5
22.197,36956.9
22.207,36974.7
22.217,36995.1
22.228,37013.5
22.238,37027.4
22.248,37047
22.258,37064
22.268,37077.3
22.278,37096.7
22.289,37112.9
22.299,37127.4
22.309,37146.4
22.319,37163.9
22.329,37177.2
22.339,37197.2
22.349,37215.5
22.359,37229.6
22.37,37250.7
22.38,37268.7
22.39,37286.4
22.4,37308.6
22.41,37327.1
22.42,37346.1
22.431,37365.2
22.441,37379.9
22.451,37396.6
22.461,37414
22.471,37429.8
22.481,37443.7
22.491,37462.7
22.502,37477.7
22.512,37493
22.522,37512.2
22.532,37528.2
22.542,37542.5
22.552,37562.6
22.562,37580
22.573,37595
22.583,37615.7
22.593,37633.2
22.603,37652.4
22.613,37673.5
22.623,37691.4
22.633,37711
22.644,37729.8
22.654,37743.5
22.664,37762.4
22.674,37779.3
22.684,37793.6
22.694,37810.8
22.704,37827.9
22.715,37842.7
22.725,37860
22.735,37878.8
22.745,37892.8
22.755,37910.7
22.765,37929
22.775,37944.6
22.786,37962.2
22.796,37981.5
22.806,37998.5
22.816,38019.8
22.826,38039.6
22.836,38057.1
22.847,38077
22.857,38094.4
22.867,38107.6
22.877,38126.8
22.887,38143.4
22.897,38156.2
22.907,38175.1
22.918,38191.4
22.928,38205.7
22.938,38224
22.948,38242
22.958,38255.2
22.968,38274.4
22.979,38292.7
22.989,38307.3
22.999,38327.7
23.009,38346.4
23.019,38363.8
23.029,38386.3
23.039,38405.3
23.05,38424.5
23.06,38443.9
23.07,38459.5
23.08,38476.1
23.09,38493.8
23.1,38509.6
23.11,38523.9
23.121,38542.8
23.131,38557.7
23.141,38573
23.151,38592.2
23.161,38607.9
23.171,38621.8
23.181,38641.9
23.192,38659.5
23.202,38674.5
23.212,38695.4
23.222,38713.1
23.232,38732.1
23.242,38753.3
23.252,38771.2
23.263,38790.7
23.273,38809.2
23.283,38822.9
23.293,38840.9
23.303,38857.3
23.313,38871.8
23.324,38886.9
23.334,38904.8
23.344,38919.5
23.354,38935
23.364,38954.1
23.374,38969.4
23.384,38984.4
23.395,39004.2
23.405,39021.5
23.415,39037.4
23.425,39057.9
23.435,39075.2
23.445,39095.3
23.455,39116.1
23.466,39133.7
23.476,39153.8
23.486,39172
23.496,39185.3
23.506,39204.5
23.516,39221.4
23.527,39234.9
23.537,39253
23.547,39269.6
23.557,39284.1
23.567,39301.6
23.577,39319.6
23.587,39333.2
23.598,39351.3
23.608,39369.5
23.618,39384.9
23.628,39403.5
23.638,39422.5
23.648,39439.7
23.659,39461.5
23.669,39481.4
23.679,39499.3
23.689,39519.5
23.699,39536.4
23.709,39551.1
23.719,39570.2
23.729,39586.9
23.74,39600.5
23.75,39620
23.76,39635.6
23.77,39650.5
23.78,39670.1
23.79,39686.8
23.8,39701
23.811,39721.5
23.821,39739.4
23.831,39754.7
23.841,39775.8
23.851,39793.3
23.862,39812.7
23.872,39834.3
23.882,39852.2
23.892,39872.5
23.902,39891
23.912,39904.7
23.922,39923.8
23.933,39940.7
23.943,39954.4
23.953,39972.4
23.963,39989.3
23.973,40004.1
23.983,40022.2
23.993,40040.6
24.004,40054.6
24.014,40073.6
24.024,40091.9
24.034,40106.8
24.044,40126.9
24.054,40145.5
24.065,40163
24.075,40185.4
24.085,40204.7
24.095,40223.6
24.105,40243.5
24.115,40259.5
24.126,40276.4
24.136,40294.1
24.146,40310
24.156,40325.2
24.166,40344
24.176,40359.5
24.186,40375.8
24.197,40395.2
24.207,40410.4
24.217,40427.1
24.227,40446.4
24.237,40463.2
24.247,40481
24.257,40500.5
24.268,40518
24.278,40539.5
24.288,40559.9
24.298,40577.9
24.308,40598.6
24.318,40616
24.329,40631
24.339,40649.8
24.349,40666.5
24.359,40679.7
24.369,40699.4
24.379,40714.7
24.389,40729.4
24.399,40749
24.41,40766
24.42,40779.8
24.43,40800.5
24.44,40818.5
24.45,40833.6
24.46,40854.6
24.47,40872.4
24.481,40891.3
24.491,40912.8
24.501,40930.9
24.511,40950.7
24.521,40969.5
24.531,40983.3
24.541,41002.1
24.552,41019
24.562,41033.4
24.572,41050.4
24.582,41067.6
24.592,41082.4
24.602,41099.7
24.612,41118.2
24.623,41132.5
24.633,41150.1
24.643,41168.9
24.653,41184.8
24.663,41203.3
24.673,41222.2
24.683,41239.3
24.694,41261
24.704,41281.1
24.714,41299
24.724,41319.4
24.734,41336.4
24.744,41351.5
24.754,41370.3
24.765,41387.1
24.775,41400.9
24.785,41420.8
24.795,41436.6
24.805,41452.3
24.815,41471.7
24.825,41488
24.836,41502.6
24.846,41522.8
24.856,41540.4
24.866,41556
24.876,41576.7
24.886,41594
24.897,41613.6
24.907,41634.7
24.917,41652.5
24.927,41672.4
24.937,41690.6
24.947,41703.9
24.957,41723
24.968,41739.9
24.978,41754
24.988,41771.6
24.998,41788.6
25.008,41803
25.018,41820
25.029,41838.4
25.039,41852.3
25.049,41869.5
25.059,41888.1
25.069,41904.2
25.079,41921.8
25.089,41940.8
25.1,41957.6
25.11,41978.2
25.12,41998.5
25.13,42015.9
25.14,42036.3
25.15,42053.9
25.16,42067.5
25.171,42087.1
25.181,42104
25.191,42117.2
25.201,42136.8
25.211,42153
25.221,42167.6
25.232,42187
25.242,42204.9
25.252,42219
25.262,42239.8
25.272,42258.3
25.282,42274.1
25.292,42295.5
25.303,42313.7
25.313,42333.6
25.323,42355.3
25.333,42373.6
25.343,42393.9
25.353,42412.6
25.363,42426.5
25.374,42446.1
25.384,42463.2
25.394,42476.9
25.404,42496.4
25.414,42512.7
25.424,42527.5
25.434,42547
25.445,42564.8
25.455,42579
25.465,42599.8
25.475,42618.4
25.485,42634.1
25.495,42655.7
25.505,42674.3
25.516,42694.9
25.526,42716.7
25.536,42735.1
25.546,42756.2
25.556,42774.6
25.566,42789.7
25.576,42809.2
25.587,42826.2
25.597,42840
25.607,42859.7
25.617,42875.5
25.627,42890.5
25.637,42910.1
25.647,42926.9
25.658,42941
25.668,42960.9
25.678,42978.3
25.688,42992.4
25.698,43013.5
25.708,43031
25.719,43049.4
25.729,43071.2
25.739,43089.5
25.749,43109.1
25.759,43128.3
25.769,43142.7
25.779,43161.3
25.79,43178.6
25.8,43193.3
25.81,43210.4
25.82,43227.8
25.83,43242.6
25.84,43259.8
25.85,43278.6
25.861,43292.8
25.871,43310.6
25.881,43329.3
25.891,43345
25.901,43363.4
25.911,43382.3
25.922,43399.4
25.932,43421.1
25.942,43441.3
25.952,43459.6
25.962,43479.8
25.972,43496.8
25.982,43512.4
25.992,43531.3
26.003,43548
26.013,43562.4
26.023,43582
26.033,43597.7
26.043,43613.6
26.053,43633.3
26.063,43649.5
26.074,43666
26.084,43685.5
26.094,43702.5
26.104,43719.5
26.114,43739.4
26.124,43756.8
26.135,43777.5
26.145,43798
26.155,43815.6
26.165,43835.9
26.175,43853.6
26.185,43867.1
26.195,43886.1
26.205,43902.7
26.216,43915.4
26.226,43933.8
26.236,43950.2
26.246,43964.6
26.256,43982.6
26.266,44000.7
26.276,44014.3
26.287,44033
26.297,44051.4
26.307,44066.4
26.317,44086
26.327,44104.4
26.337,44121.3
26.347,44143.5
26.358,44162.8
26.368,44181.1
26.378,44201.1
26.388,44217.3
26.398,44233
26.408,44251.4
26.418,44267.8
26.429,44281.6
26.439,44301.1
26.449,44316.4
26.459,44331.7
26.469,44351.4
26.479,44367.9
26.49,44382.9
26.5,44403.1
26.51,44420.9
26.52,44437
26.53,44457.8
26.54,44475.5
26.55,44496.2
26.561,44517.4
26.571,44535.5
26.581,44555.9
26.591,44574
26.601,44588.1
26.611,44607.5
26.622,44624.2
26.632,44637.3
26.642,44656.7
26.652,44672.9
26.662,44687.6
26.672,44706.9
26.682,44724.4
26.693,44738.1
26.703,44758.2
26.713,44776.1
26.723,44790.4
26.733,44811.7
26.744,44831.8
26.754,44850.9
26.764,44872.9
26.775,44891.3
26.785,44911.3
26.795,44930.4
26.805,44944.3
26.815,44963.6
26.825,44980.8
26.836,44994.8
26.846,45013.2
26.856,45030.1
26.866,45044.8
26.876,45062.9
26.886,45081.4
26.897,45095
26.907,45114.2
26.917,45132.5
26.927,45147.5
26.937,45168.2
26.947,45186.6
26.957,45204
26.968,45226.5
26.978,45245.5
26.988,45264.8
26.998,45284.2
27.008,45299.4
27.018,45315.8
27.028,45333.2
27.039,45349.1
27.049,45362.6
27.059,45381.8
27.069,45396.7
27.079,45411.5
27.089,45430.7
27.1,45446.9
27.11,45460.4
27.12,45480.7
27.13,45498.6
27.14,45513.3
27.15,45534.2
27.16,45552
27.171,45570.5
27.181,45592.1
27.191,45609.9
27.201,45629.7
27.211,45648.8
27.221,45662.9
27.232,45681.5
27.242,45698.5
27.252,45713.1
27.262,45729.7
27.272,45747.3
27.282,45762.2
27.292,45779.3
27.303,45797.9
27.313,45812.3
27.323,45829.9
27.333,45848.7
27.343,45864.8
27.353,45883.4
27.363,45902.7
27.373,45920
27.384,45941.7
27.394,45961.4
27.404,45979.4
27.414,45999.4
27.424,46016.2
27.434,46030.6
27.444,46049.6
27.455,46066
27.465,46079.2
27.475,46098.8
27.485,46114.5
27.495,46129.4
27.505,46148.9
27.516,46165.9
27.526,46179.6
27.536,46200.3
27.546,46218.4
27.556,46233.4
27.566,46254.6
27.576,46272.6
27.587,46291.9
27.597,46313.7
27.607,46331.8
27.617,46352.1
27.627,46371.3
27.637,46385.3
27.648,46408.5
27.658,46437.5
27.668,46471.8
27.678,46510.9
27.688,46555.3
27.698,46603.5
27.709,46657.2
27.719,46712.8
27.729,46762.1
27.739,46808.8
27.749,46853.2
27.759,46895.2
27.769,46935.7
27.78,46973.6
27.79,47009.8
27.8,47046.3
27.81,47081
27.82,47111.5
27.83,47142
27.84,47170.4
27.851,47198.1
27.861,47224.9
27.871,47250.4
27.881,47275.9
27.891,47300.6
27.901,47324.4
27.911,47348.4
27.922,47372.4
27.932,47397.8
27.942,47420.5
27.952,47443.9
27.962,47462.9
27.972,47484.5
27.983,47504.2
27.993,47521.3
28.003,47542.9
28.013,47560.9
28.023,47580.1
28.033,47600.5
28.043,47616.3
28.054,47637.4
28.064,47656.8
28.074,47672.9
28.084,47694.7
28.094,47713
28.104,47733.1
28.115,47755.1
28.125,47773.6
28.135,47794.1
28.145,47812.6
28.155,47826.4
28.165,47846.3
28.175,47863.4
28.185,47877.1
28.196,47896.7
28.206,47913
28.216,47927.8
28.226,47947
28.236,47964.6
28.246,47978.3
28.256,47998.6
28.267,48016.4
28.277,48030.6
28.287,48052.1
28.297,48070.3
28.307,48088.9
28.317,48110.9
28.328,48129.6
28.338,48149.5
28.348,48168.7
28.358,48183
28.368,48201.9
28.378,48219
28.388,48233.6
28.399,48250.9
28.409,48268.2
28.419,48283.1
28.429,48300.8
28.439,48319.4
28.449,48333.4
28.46,48351.6
28.47,48369.9
28.48,48385.2
28.49,48403.7
28.5,48422.7
28.51,48439.6
28.52,48461.2
28.531,48481
28.541,48498.9
28.551,48519
28.561,48536
28.571,48550.1
28.581,48569
28.591,48585.5
28.602,48598.4
28.612,48617.9
28.622,48633.4
28.632,48647.8
28.642,48666.7
28.652,48684.3
28.663,48697.7
28.673,48718.1
28.683,48736.2
28.693,48750.9
28.703,48772.3
28.713,48790.5
28.723,48809.3
28.734,48831.4
28.744,48849.6
28.754,48869.4
28.764,48888.4
28.774,48902.7
28.784,48921.2
28.795,48938.2
28.805,48953.1
28.815,48969.9
28.825,48987.6
28.835,49002.6
28.845,49019.8
28.856,49038.4
28.866,49052.4
28.876,49069.7
28.886,49088.4
28.896,49104.3
28.906,49122.3
28.917,49141.6
28.927,49158.5
28.937,49179.8
28.947,49199.7
28.957,49217.3
28.967,49237.2
28.977,49254.5
28.988,49267.9
28.998,49286.9
29.008,49303.3
29.018,49315.8
29.028,49334.2
29.038,49350.2
29.048,49364.3
29.059,49382.1
29.069,49400.2
29.079,49413.8
29.089,49432.3
29.099,49450.7
29.109,49466
29.12,49485.4
29.13,49504.2
29.14,49521.5
29.15,49543.6
29.16,49563
29.17,49581.6
29.18,49601.6
29.191,49618.1
29.201,49634.2
29.211,49652.6
29.221,49668.9
29.231,49683.3
29.241,49702.5
29.252,49717.9
29.262,49733.4
29.272,49753
29.282,49768.9
29.292,49784.6
29.302,49804.4
29.312,49821.9
29.322,49838.4
29.333,49858.5
29.343,49876
29.353,49896.3
29.363,49917
29.373,49934.5
29.383,49954.8
29.393,49973.1
29.404,49986.8
29.414,50006
29.424,50022.9
29.434,50036
29.444,50055.3
29.454,50071.8
29.465,50086.6
29.475,50105.2
29.485,50123.2
29.495,50136.5
29.505,50156.7
29.515,50175.4
29.525,50190.2
29.536,50211.7
29.546,50229.8
29.556,50248.3
29.566,50270.2
29.576,50288.7
29.586,50308.1
29.596,50327
29.607,50341.5
29.617,50359.2
29.627,50376.2
29.637,50391.4
29.647,50406.5
29.657,50424.9
29.667,50439.9
29.678,50456
29.688,50474.8
29.698,50490
29.708,50505.7
29.718,50525.1
29.728,50542
29.738,50558.1
29.749,50578.1
29.759,50595.3
29.769,50615.4
29.779,50636.6
29.789,50654.5
29.799,50675
29.809,50693.2
29.82,50707.1
29.83,50726.6
29.84,50743.4
29.85,50756.5
29.86,50775.6
29.87,50791.9
29.88,50806.6
29.891,50825.5
29.901,50843.6
29.911,50857.1
29.921,50877.3
29.931,50895.3
29.941,50909.5
29.951,50930.2
29.962,50948.3
29.972,50965.8
29.982,50987.9
29.992,51006.5
30.002,51025.6
30.012,51044.5
30.023,51059.5
30.033,51075.7
30.043,51093.1
30.053,51109.1
30.063,51122.1
30.073,51141.2
30.083,51156.3
30.094,51170.8
30.104,51190.1
30.114,51206.5
30.124,51219.7
30.134,51239.7
30.144,51257.3
30.154,51271.4
30.165,51292.7
30.175,51310.7
30.185,51329.1
30.195,51351.2
30.205,51369.4
30.215,51389.3
30.225,51408.4
30.236,51422.9
30.246,51441.4
30.256,51458.5
30.266,51473.3
30.276,51490.7
30.286,51508.1
30.296,51523
30.307,51540.5
30.317,51559.3
30.327,51573.2
30.337,51591.6
30.347,51609.7
30.357,51625.3
30.367,51644
30.378,51662.5
30.388,51679.4
30.398,51701
30.408,51721
30.418,51739
30.428,51759.2
30.438,51776.1
30.449,51790.5
30.459,51809.1
30.469,51825.7
30.479,51838.2
30.489,51857.7
30.499,51873.3
30.509,51887.6
30.52,51906.2
30.53,51923.6
30.54,51936.4
30.55,51955.9
30.56,51973.8
30.57,51988
30.581,52008.5
30.591,52027
30.601,52044.3
30.611,52066.7
30.621,52085.4
30.631,52104.6
30.641,52124.1
30.652,52139.6
30.662,52156.6
30.672,52174
30.682,52190.1
30.692,52204.7
30.702,52223.6
30.712,52238.5
30.723,52254.4
30.733,52273.9
30.743,52289.8
30.753,52306.2
30.763,52325.8
30.773,52343
30.783,52360.7
30.794,52380.2
30.804,52397.4
30.814,52419
30.824,52439.7
30.834,52458.1
30.844,52478.3
30.854,52495.8
30.865,52510.7
30.875,52529.9
30.885,52547
30.895,52561.6
30.905,52587.3
30.915,52616.7
30.925,52651.1
30.936,52685.2
30.946,52716.6
30.956,52747.8
30.966,52778.3
30.976,52808.6
30.986,52837.2
30.996,52862.8
31.007,52888.4
31.017,52912.1
31.027,52936.7
31.037,52959.4
31.047,52982.7
31.057,53005.6
31.068,53026.8
31.078,53057.8
31.088,53093.5
31.098,53135.1
31.108,53177.2
31.118,53215.7
31.128,53251.3
31.139,53284.9
31.149,53317.9
31.159,53350
31.169,53380.2
31.179,53410.9
31.189,53439.1
31.199,53467.4
31.209,53495.4
31.22,53523.5
31.23,53550.6
31.24,53575.7
31.25,53599.2
31.26,53622.2
31.27,53643.2
31.281,53666.6
31.291,53687
31.301,53710.1
31.311,53730.7
31.321,53752.2
31.331,53773.7
31.341,53792.3
31.351,53815.6
31.362,53835.7
31.372,53858.2
31.382,53880.8
31.392,53901.2
31.402,53922.6
31.412,53940.1
31.422,53959.1
31.433,53977.3
31.443,53993.5
31.453,54011.8
31.463,54029.8
31.473,54045.3
31.483,54064.6
31.493,54083.2
31.504,54097.6
31.514,54118.6
31.524,54137.6
31.534,54153.5
31.544,54175.4
31.554,54193.7
31.565,54214.2
31.575,54235.6
31.585,54253.9
31.595,54274.5
31.605,54292.9
31.615,54306.8
31.625,54326.3
31.636,54343.3
31.646,54356.5
31.656,54376
31.666,54392.5
31.676,54407.2
31.686,54426.2
31.696,54443.9
31.707,54457.1
31.717,54477.3
31.727,54495.7
31.737,54510.2
31.747,54531.6
31.757,54549.9
31.768,54568.3
31.778,54590.5
31.788,54608.8
31.798,54628.3
31.808,54647.3
31.818,54661.7
31.828,54679.6
31.839,54696.6
31.849,54711.8
31.859,54727.4
31.869,54745.3
31.879,54760.1
31.889,54775.9
31.899,54794.9
31.91,54809.8
31.92,54825
31.93,54844.2
31.94,54861.1
31.95,54876.2
31.96,54896.4
31.97,54913.6
31.981,54932.3
31.991,54953.3
32.001,54970.8
32.011,54990.2
32.021,55009
32.031,55022.8
32.041,55041.1
32.051,55057.9
32.062,55072.6
32.072,55088.7
32.082,55106.5
32.092,55121.3
32.102,55138.1
32.112,55157
32.122,55171.6
32.133,55189
32.143,55207.9
32.153,55224.3
32.163,55242.5
32.173,55262
32.183,55279.3
32.193,55301.5
32.204,55321.6
32.214,55340.3
32.224,55360.4
32.234,55377.3
32.244,55392.8
32.254,55411.3
32.264,55427.7
32.275,55441.3
32.285,55460.9
32.295,55476.2
32.305,55491.4
32.315,55511
32.325,55527.4
32.336,55541.9
32.346,55562.1
32.356,55580
32.366,55595.4
32.376,55616.6
32.386,55634.4
32.396,55654.6
32.407,55675.9
32.417,55694.1
32.427,55715
32.437,55733.6
32.447,55748.2
32.457,55768
32.467,55785.2
32.478,55799.1
32.488,55819
32.498,55834.9
32.508,55850
32.518,55869.2
32.528,55886.1
32.539,55899.8
32.549,55920.1
32.559,55938.2
32.569,55953.1
32.579,55974.4
32.589,55992.5
32.599,56011.6
32.61,56033.4
32.62,56051.5
32.63,56071.7
32.64,56090.6
32.65,56104.5
32.66,56123.9
32.67,56141.1
32.681,56155
32.691,56173.5
32.701,56190.3
32.711,56205.3
32.721,56223.4
32.731,56241.7
32.741,56255.2
32.752,56273.7
32.762,56294
32.772,56318
32.782,56343.7
32.792,56367.8
32.802,56394.3
32.813,56417.8
32.823,56442.4
32.833,56462.5
32.843,56484.6
32.853,56505.2
32.863,56523.8
32.873,56545.4
32.884,56563.6
32.894,56584.2
32.904,56604.6
32.914,56621.7
32.924,56643.9
32.934,56662.9
32.945,56683
32.955,56703.9
32.965,56723.4
32.975,56747.3
32.985,56767.8
32.995,56788.9
33.005,56809.4
33.016,56825.1
33.026,56845.4
33.036,56863.7
33.046,56878.5
33.056,56899
33.066,56915.7
33.076,56932
33.087,56952.3
33.097,56969.2
33.107,56986.1
33.117,57006.2
33.127,57023.5
33.137,57041.8
33.147,57061.6
33.157,57079.3
33.168,57101.7
33.178,57122
33.188,57140.6
33.198,57160.9
33.208,57177.4
33.218,57193
33.228,57211.2
33.239,57227.6
33.249,57240.8
33.259,57260.5
33.269,57275.8
33.279,57290.8
33.289,57310.1
33.299,57326.7
33.31,57340.2
33.32,57360.7
33.33,57378.4
33.34,57393.2
33.35,57414.2
33.36,57431.9
33.37,57450.6
33.381,57472.1
33.391,57490.1
33.401,57509.5
33.411,57528.3
33.421,57542.2
33.431,57560
33.441,57577
33.452,57591.8
33.462,57607.3
33.472,57625.2
33.482,57640
33.492,57655.9
33.502,57674.8
33.512,57689.7
33.523,57704.9
33.533,57724.1
33.543,57741.2
33.553,57756.4
33.563,57777.1
33.573,57794.6
33.583,57814.5
33.594,57835.7
33.604,57853.6
33.614,57873.9
33.624,57892.3
33.634,57905.9
33.644,57925.5
33.655,57942.6
33.665,57956.1
33.675,57975.2
33.685,57991.9
33.695,58006.6
33.705,58025.7
33.715,58043.5
33.726,58056.9
33.736,58076.8
33.746,58095.1
33.756,58109.4
33.766,58130.6
33.776,58148.5
33.786,58166.3
33.797,58188.7
33.807,58207.1
33.817,58226.5
33.827,58245.5
33.837,58260.5
33.847,58277.9
33.857,58295.3
33.868,58310.9
33.878,58326.3
33.888,58344.6
33.898,58359.7
33.908,58375.6
33.918,58394.8
33.928,58409.9
33.938,58425.7
33.949,58445
33.959,58462.1
33.969,58478.6
33.979,58498.6
33.989,58515.8
33.999,58536.1
34.01,58556.8
34.02,58574.3
34.03,58594.2
34.04,58612.4
34.05,58625.4
34.06,58644.7
34.07,58661.3
34.081,58674.7
34.091,58692.6
34.101,58709.2
34.111,58723.7
34.121,58741.4
34.131,58760.1
34.142,58774.1
34.152,58793.2
34.162,58812
34.172,58827.4
34.182,58847.9
34.192,58866.2
34.202,58883.4
34.212,58905.6
34.223,58924.5
34.233,58943.1
34.243,58962.5
34.253,58978.4
34.263,58994
34.273,59012.2
34.283,59028.5
34.294,59042.1
34.304,59061.5
34.314,59076.8
34.324,59092.1
34.334,59111.9
34.344,59128.3
34.354,59143.8
34.365,59163.9
34.375,59181.2
34.385,59197.3
34.395,59217.5
34.405,59234.9
34.415,59254.4
34.426,59275.2
34.436,59292.8
34.446,59312.2
34.456,59330.4
34.466,59343.3
34.476,59361.8
34.486,59378.4
34.497,59392.7
34.507,59408.9
34.517,59426.5
34.527,59441.3
34.537,59457.9
34.547,59476.5
34.557,59491.2
34.568,59508
34.578,59526.7
34.588,59543
34.598,59559.6
34.608,59579.2
34.618,59596.2
34.628,59616.4
34.639,59637.2
34.649,59654.7
34.659,59675.3
34.669,59693.5
34.679,59707.4
34.689,59727.2
34.699,59744.3
34.709,59758
34.72,59777.7
34.73,59793.9
34.74,59808.8
34.75,59828.2
34.76,59845.2
34.77,59858.8
34.78,59879
34.791,59897
34.801,59911
34.811,59932.2
34.821,59950
34.831,59968.1
34.841,59989.9
34.852,60008.2
34.862,60027.6
34.872,60047
34.882,60061.7
34.892,60079.7
34.902,60097.2
34.912,60112.3
34.923,60129.1
34.933,60147
34.943,60162.4
34.953,60180.1
34.963,60199.1
34.973,60213.6
34.983,60232.3
34.994,60250.9
35.004,60266.3
35.014,60285.8
35.024,60304.6
35.034,60321.8
35.044,60344.5
35.055,60364.1
35.065,60383
35.075,60402.9
35.085,60418.8
35.095,60435.4
35.105,60453.2
35.115,60469.5
35.126,60484
35.136,60503.2
35.146,60518.5
35.156,60534.2
35.166,60553.6
35.176,60569.3
35.186,60584.6
35.197,60604.2
35.207,60621.2
35.217,60636.7
35.227,60656.9
35.237,60674.3
35.247,60693.6
35.257,60714.5
35.268,60732
35.278,60751.8
35.288,60770.4
35.298,60783.9
35.308,60802.7
35.318,60819.3
35.328,60833.4
35.339,60849.8
35.349,60867.1
35.359,60881.8
35.369,60898.7
35.379,60917.3
35.389,60931.5
35.399,60948.5
35.41,60967.3
35.42,60983.7
35.43,61000.9
35.44,61020.2
35.45,61037.2
35.46,61058
35.47,61078.3
35.481,61095.7
35.491,61115.7
35.501,61133.5
35.511,61146.7
35.521,61166.2
35.531,61183.1
35.542,61196.3
35.552,61215.2
35.562,61231.4
35.572,61245.9
35.582,61264.6
35.592,61282.5
35.602,61295.7
35.613,61315.3
35.623,61333.6
35.633,61348.1
35.643,61369.1
35.653,61387.2
35.663,61404.9
35.673,61427.3
35.684,61446
35.694,61465.4
35.704,61485.1
35.714,61500.5
35.724,61518.3
35.734,61535.8
35.744,61551.6
35.755,61567.7
35.765,61586
35.775,61601.4
35.785,61618.8
35.795,61638
35.805,61652.9
35.815,61671.5
35.826,61690.2
35.836,61706
35.846,61725.6
35.856,61744.7
35.866,61762
35.876,61784.5
35.886,61804.1
35.897,61823.1
35.907,61842.9
35.917,61858.8
35.927,61875.1
35.937,61893
35.947,61909.2
35.957,61923.4
35.968,61942.8
35.978,61958.3
35.988,61974.3
35.998,61993.7
36.008,62009.6
36.018,62025.5
36.028,62044.9
36.039,62061.8
36.049,62077.9
36.059,62098
36.069,62115.4
36.079,62135.6
36.089,62156.5
36.1,62174.3
36.11,62194.9
36.12,62213.2
36.13,62227.2
36.14,62246.6
36.15,62263.8
36.161,62277.2
36.171,62296.8
36.181,62312.8
36.191,62327.5
36.201,62346.7
36.211,62364.6
36.221,62378.3
36.232,62398.8
36.242,62416.8
36.252,62431.1
36.262,62452.1
36.272,62469.9
36.282,62487.6
36.292,62509.8
36.303,62527.9
36.313,62547
36.323,62565.7
36.333,62580.2
36.343,62596.5
36.353,62613.4
36.363,62628.9
36.374,62642
36.384,62661
36.394,62676
36.404,62690.4
36.414,62709.4
36.424,62725.9
36.435,62738.8
36.445,62758.6
36.455,62776.3
36.465,62789.7
36.475,62810.5
36.485,62828.1
36.495,62845.4
36.506,62867.8
36.516,62886.7
36.526,62905.9
36.536,62925.4
36.546,62940.3
36.556,62957.5
36.566,62975.1
36.577,62990.7
36.587,63005.6
36.597,63024.1
36.607,63039.1
36.617,63054.6
36.627,63073.8
36.637,63089.1
36.648,63103.9
36.658,63123.6
36.668,63140.8
36.678,63156
36.688,63176.7
36.698,63194.5
36.709,63214
36.719,63235
36.729,63252.6
36.739,63272.5
36.749,63290.9
36.759,63304.2
36.769,63323
36.78,63339.8
36.79,63353.6
36.8,63370.5
36.81,63387.6
36.82,63402.4
36.83,63419.6
36.84,63438.4
36.851,63452.6
36.861,63470.7
36.871,63489.2
36.881,63505.1
36.891,63523.7
36.901,63542.6
36.911,63559.8
36.922,63581.7
36.932,63601.3
36.942,63619.4
36.952,63639.3
36.962,63656.2
36.972,63670.8
36.982,63689.5
36.993,63705.9
37.003,63718.7
37.013,63738.2
37.023,63753.9
37.033,63768.3
37.043,63787.5
37.054,63804.7
37.064,63818.1
37.074,63838.4
37.084,63856.6
37.094,63871.1
37.104,63892.3
37.114,63910.3
37.125,63928.8
37.135,63950.9
37.145,63969.2
37.155,63989
37.165,64008.3
37.175,64022.8
37.186,64041.6
37.196,64059.2
37.206,64074
37.216,64092.3
37.226,64109.8
37.236,64125
37.246,64143.9
37.257,64162.3
37.267,64176.2
37.277,64196.5
37.287,64214.9
37.297,64229.6
37.307,64250.9
37.318,64269.5
37.328,64288
37.338,64310.3
37.348,64329.3
37.358,64349.4
37.368,64369
37.378,64383.7
37.389,64403.2
37.399,64421
37.409,64435.4
37.419,64454.6
37.429,64471.8
37.439,64487.1
37.45,64506.8
37.46,64524.9
37.47,64539.2
37.48,64559.9
37.49,64578.1
37.5,64593.2
37.51,64614.3
37.521,64631.9
37.531,64650.7
37.541,64672.1
37.551,64690.2
37.561,64710
37.571,64728.8
37.581,64742.9
37.592,64761.1
37.602,64777.8
37.612,64792.4
37.622,64808.2
37.632,64826
37.642,64840.7
37.652,64857.1
37.663,64875.7
37.673,64890.4
37.683,64906
37.693,64924.9
37.703,64941.5
37.713,64956.8
37.723,64977
37.734,64994.4
37.744,65013.7
37.754,65034.3
37.764,65051.6
37.774,65071.1
37.784,65089.7
37.794,65103.1
37.805,65121.6
37.815,65138.4
37.825,65152.9
37.835,65169.3
37.845,65186.9
37.855,65201.5
37.866,65218.2
37.876,65237.1
37.886,65251.6
37.896,65268.6
37.906,65287.6
37.916,65303.8
37.926,65321.5
37.937,65340.6
37.947,65357.8
37.957,65378.7
37.967,65399.3
37.977,65417.2
37.987,65437.3
37.997,65454.6
38.008,65468.2
38.018,65487.5
38.028,65504
38.038,65516.8
38.048,65536
38.058,65551.9
38.069,65566.2
38.079,65585
38.089,65602.9
38.099,65616.2
38.109,65635.8
38.119,65654
38.129,65668.4
38.14,65688.9
38.15,65707
38.16,65724.4
38.17,65746.5
38.18,65765.4
38.19,65784
38.2,65803.2
38.211,65818.8
38.221,65834.9
38.231,65852.7
38.241,65868.8
38.251,65882.4
38.261,65901.8
38.272,65917.1
38.282,65932.1
38.292,65951.7
38.302,65967.8
38.312,65982.5
38.322,66002.5
38.332,66020.1
38.343,66035.1
38.353,66055.8
38.363,66073
38.373,66091.6
38.383,66113
38.393,66130.7
38.403,66150.2
38.414,66168.6
38.424,66182.3
38.434,66200.3
38.444,66217.3
38.454,66232.2
38.464,66248.2
38.474,66266.2
38.485,66281.2
38.495,66297.8
38.505,66316.7
38.515,66331.3
38.525,66348.1
38.535,66367
38.546,66383.6
38.556,66401.1
38.566,66420.6
38.576,66437.9
38.586,66458.9
38.596,66479.2
38.606,66496.8
38.617,66517.2
38.627,66534.7
38.637,66548.7
38.647,66567.8
38.657,66584.6
38.667,66597.5
38.678,66617
38.688,66632.9
38.698,66647.4
38.708,66666.5
38.718,66684.1
38.728,66697.3
38.738,66717.3
38.749,66735.5
38.759,66749.1
38.769,66769.9
38.781,66794
38.791,66820.5
38.801,66849.4
38.811,66880
38.821,66915.5
38.831,66955.3
38.842,66999.1
38.852,67044.7
38.862,67094
38.872,67144.6
38.882,67194.4
38.892,67242.1
38.902,67284.6
38.913,67325.3
38.923,67364.1
38.933,67402.1
38.943,67437.9
38.953,67471.2
38.963,67504.7
38.974,67536.7
38.984,67568.6
38.994,67598.8
39.004,67625.5
39.014,67652.4
39.024,67676.6
39.034,67702.4
39.045,67725.3
39.055,67749.6
39.065,67771.7
39.075,67795.1
39.085,67817.5
39.095,67838.4
39.106,67861.4
39.116,67882.2
39.126,67906.8
39.136,67928.5
39.146,67950.6
39.156,67971.6
39.166,67988.4
39.177,68009.5
39.187,68028.1
39.197,68045.4
39.207,68066
39.217,68083.1
39.227,68102.7
39.237,68122.3
39.248,68137.6
39.258,68158.9
39.268,68178.1
39.278,68194.8
39.288,68216.2
39.298,68234.7
39.308,68255.6
39.319,68277.5
39.329,68296.4
39.339,68317.4
39.349,68335.4
39.359,68350.7
39.369,68370.3
39.38,68387.3
39.39,68402.1
39.4,68422
39.41,68438.1
39.42,68454.8
39.43,68474.9
39.44,68491.1
39.451,68509.2
39.461,68528.7
39.471,68545.1
39.481,68564.7
39.491,68583.7
39.501,68601.3
39.511,68623.6
39.522,68643.5
39.532,68662.3
39.542,68682.2
39.552,68698.6
39.562,68715.1
39.572,68733.4
39.582,68749.7
39.593,68764.7
39.603,68784
39.613,68799.4
39.623,68816.1
39.633,68835.7
39.643,68851.1
39.654,68868.7
39.664,68888
39.674,68904.4
39.684,68923.3
39.694,68942.5
39.704,68959.9
39.714,68981.9
39.725,69002
39.735,69020.5
39.745,69040.7
39.755,69057.4
39.765,69073
39.775,69091.5
39.785,69107.9
39.796,69121.6
39.806,69141.2
39.816,69156.6
39.826,69171.8
39.836,69191.7
39.846,69208
39.856,69223
39.867,69243
39.877,69260.8
39.887,69276.2
39.897,69296.9
39.907,69314.2
39.917,69333.9
39.927,69354.9
39.938,69372.7
39.948,69392.7
39.958,69411.2
39.968,69424.8
39.978,69443.8
39.988,69460.8
39.998,69474.5
40.009,69492.3
40.019,69509.2
40.029,69523.6
40.039,69541.2
40.049,69559.4
40.059,69573.1
40.07,69591.1
40.08,69609.7
40.09,69625.2
40.1,69643.7
40.11,69662.4
40.12,69679.3
40.13,69700.9
40.141,69720.6
40.151,69738.3
40.161,69758.2
40.171,69775.2
40.181,69788.9
40.191,69807.9
40.201,69824.6
40.212,69837.3
40.222,69856.7
40.232,69872.7
40.242,69887.4
40.252,69906.5
40.262,69924
40.272,69937.3
40.283,69957.3
40.293,69975
40.303,69988.5
40.313,70008.8
40.323,70026.5
40.333,70043.2
40.343,70065.4
40.354,70084.4
40.364,70102.9
40.374,70122.4
40.384,70138.2
40.394,70153.6
40.404,70171.5
40.414,70187.6
40.425,70200.2
40.435,70219.6
40.445,70234.6
40.455,70248.6
40.465,70267.4
40.475,70284.4
40.486,70297
40.496,70316.7
40.506,70334.5
40.516,70348.4
40.526,70369.1
40.536,70387.2
40.546,70404.5
40.557,70426.8
40.567,70445.3
40.577,70464.1
40.587,70483.5
40.597,70498.9
40.607,70515.2
40.618,70532.7
40.628,70548.8
40.638,70562.4
40.648,70581.7
40.658,70597.1
40.668,70612.3
40.678,70631.9
40.689,70648
40.699,70662.9
40.709,70683.2
40.719,70700.8
40.729,70716.7
40.739,70737.4
40.75,70755.2
40.76,70775.7
40.77,70797
40.78,70814.9
40.79,70835.2
40.8,70853.4
40.811,70866.9
40.821,70886.6
40.831,70903.7
40.841,70917.2
40.851,70936.8
40.861,70953.2
40.871,70968.3
40.882,70988
40.892,71005.6
40.902,71019.8
40.912,71040.5
40.922,71058.8
40.932,71074.5
40.943,71095.8
40.953,71113.9
40.963,71134.3
40.973,71155.9
40.983,71174.3
40.993,71195
41.003,71213.6
41.013,71228
41.024,71247.8
41.034,71265.3
41.044,71279.4
41.054,71299.4
41.064,71315.7
41.074,71331.4
41.085,71351.5
41.095,71368.2
41.105,71383.9
41.115,71404
41.125,71421.4
41.135,71438
41.145,71458.2
41.156,71475.5
41.166,71495.7
41.176,71516.5
41.186,71533.9
41.196,71554.3
41.206,71572.6
41.216,71586.1
41.227,71605.6
41.237,71622.5
41.247,71635.8
41.257,71654.7
41.267,71671.3
41.277,71686
41.287,71705
41.298,71723
41.308,71736.7
41.318,71757
41.328,71775.2
41.338,71790
41.348,71811.4
41.358,71829.6
41.369,71848
41.379,71870.3
41.389,71888.9
41.399,71908.6
41.409,71927.6
41.419,71942.2
41.429,71960.2
41.44,71977.2
41.45,71992.2
41.46,72008.5
41.47,72026.3
41.48,72041.4
41.49,72058.1
41.5,72077.1
41.511,72091.6
41.521,72109
41.531,72127.9
41.541,72144.2
41.551,72162.4
41.561,72181.5
41.572,72198.8
41.582,72220.6
41.592,72240.6
41.602,72258.9
41.612,72279.2
41.622,72296.3
41.633,72311.3
41.643,72330.3
41.653,72347
41.663,72360.4
41.673,72380.2
41.683,72395.6
41.693,72410.8
41.704,72430.2
41.714,72447
41.724,72461.2
41.734,72481.3
41.744,72499.1
41.754,72513.7
41.764,72534.7
41.775,72552.6
41.785,72571.6
41.795,72593.6
41.805,72611.9
41.815,72631.9
41.825,72651.1
41.836,72665.1
41.846,72684.5
41.856,72701.7
41.866,72715.3
41.876,72734.2
41.887,72750.9
41.897,72765.6
41.907,72784.3
41.917,72802.7
41.927,72816.3
41.937,72836.3
41.947,72854.6
41.958,72869.3
41.968,72890.6
41.978,72909.1
41.988,72927.7
41.998,72949.9
42.009,72968.7
42.019,72988.5
42.029,73007.9
42.039,73022.6
42.049,73041.5
42.059,73059.1
42.07,73073.8
42.08,73091.9
42.09,73109.5
42.1,73124.8
42.11,73143.7
42.12,73162.3
42.131,73176.6
42.141,73196.8
42.151,73215.3
42.161,73230
42.171,73251.2
42.181,73269.4
42.191,73287.9
42.202,73310.2
42.212,73328.7
42.222,73348.6
42.232,73367.8
42.242,73382.4
42.252,73401
42.262,73418.5
42.273,73433.3
42.283,73450.9
42.293,73468.8
42.303,73483.9
42.313,73502
42.323,73520.7
42.333,73534.6
42.344,73553.8
42.354,73572.3
42.364,73587.5
42.374,73607.9
42.384,73626.4
42.394,73643.9
42.404,73666.5
42.415,73685.3
42.425,73704.6
42.435,73724.2
42.445,73740
42.455,73756.9
42.465,73774.4
42.475,73790.4
42.486,73805.3
42.496,73824
42.506,73839
42.516,73854.8
42.526,73874
42.536,73889.3
42.546,73904.6
42.557,73924.4
42.567,73941.7
42.577,73957.8
42.587,73978
42.597,73995.5
42.607,74015.5
42.617,74036.5
42.628,74053.9
42.638,74074.1
42.648,74092.3
42.658,74105.4
42.668,74124.7
42.678,74141.4
42.689,74154.8
42.699,74172.6
42.709,74189.4
42.719,74204.1
42.729,74221.6
42.739,74240
42.749,74253.6
42.76,74272
42.77,74290.6
42.78,74306
42.79,74325.1
42.8,74343.6
42.81,74360.5
42.82,74382.6
42.831,74401.9
42.841,74419.9
42.851,74439.9
42.861,74456.3
42.871,74470.9
42.881,74494
42.891,74520.8
42.902,74554.6
42.912,74590.3
42.922,74626.7
42.932,74668.8
42.942,74711.3
42.952,74753.2
42.962,74793.5
42.973,74829.8
42.983,74864.1
42.993,74896.8
43.003,74927.9
43.013,74959.8
43.023,74989
43.034,75018.1
43.044,75045.7
43.054,75072.8
43.064,75103.1
43.074,75137.4
43.084,75175.1
43.095,75212.7
43.105,75249
43.115,75283.9
43.125,75318.7
43.135,75351
43.145,75382.3
43.155,75413.3
43.165,75442.2
43.176,75473.4
43.186,75501.8
43.196,75529.7
43.206,75553.9
43.216,75578.7
43.226,75601.1
43.236,75625.8
43.247,75647.6
43.257,75671.7
43.267,75693
43.277,75716.1
43.287,75738.4
43.297,75758.9
43.308,75782.1
43.318,75802.8
43.328,75827.6
43.338,75849.2
43.348,75871.5
43.358,75892.3
43.368,75909.4
43.379,75930.3
43.389,75948.8
43.399,75966.1
43.409,75985.7
43.419,76002.3
43.429,76020.9
43.439,76040.3
43.45,76055.2
43.46,76075.6
43.47,76094.8
43.48,76110.5
43.49,76132.4
43.5,76151.1
43.51,76170.9
43.521,76193.5
43.531,76212.6
43.541,76233.2
43.551,76252.4
43.561,76266.8
43.571,76286.5
43.581,76303.9
43.592,76317.6
43.602,76337.7
43.612,76353.9
43.622,76369.1
43.632,76388.4
43.642,76405.7
43.652,76419.5
43.663,76440.3
43.673,76458.6
43.683,76474
43.693,76495.5
43.703,76513.5
43.713,76533.4
43.723,76554.9
43.734,76573.2
43.744,76593.8
43.754,76612.7
43.764,76626.8
43.774,76646.5
43.784,76663.8
43.794,76677.3
43.805,76697.3
43.815,76713.6
43.825,76728.8
43.835,76748.3
43.845,76765.7
43.855,76779.5
43.866,76799.9
43.876,76817.9
43.886,76832.5
43.896,76853.8
43.906,76871.8
43.916,76890.8
43.927,76912.7
43.937,76931
43.947,76951.2
43.957,76970.1
43.967,76984.2
43.977,77003.2
43.988,77020.4
43.998,77034.4
44.008,77052.5
44.018,77069.4
44.028,77084.2
44.038,77102.1
44.048,77120.5
44.059,77134.3
44.069,77153.2
44.079,77171.6
44.089,77186.6
44.099,77206
44.109,77224.4
44.12,77241.1
44.13,77263
44.14,77282.1
44.15,77299.9
44.16,77319.6
44.17,77336.2
44.18,77350.1
44.191,77368.7
44.201,77384.8
44.211,77397
44.221,77415.7
44.231,77431.5
44.241,77445.4
44.251,77463.4
44.262,77481.1
44.272,77493.9
44.282,77512
44.292,77529.9
44.302,77545.1
44.312,77563
44.322,77581.8
44.332,77598.5
44.343,77619.5
44.353,77639.2
44.363,77656.2
44.373,77675.7
44.383,77693
44.393,77705.4
44.403,77724.3
44.414,77740.6
44.424,77753.7
44.434,77770.6
44.444,77787.7
44.454,77802.4
44.464,77819.5
44.475,77838.2
44.485,77852.4
44.495,77870.1
44.505,77888.9
44.515,77904.8
44.525,77923.2
44.535,77942.3
44.546,77959.4
44.556,77981
44.566,78000.7
44.576,78018.6
44.586,78038.8
44.596,78055.8
44.607,78070.1
44.617,78089.2
44.627,78105.9
44.637,78118.9
44.647,78138.4
44.657,78154.3
44.667,78169
44.678,78188.5
44.688,78205.6
44.698,78219.4
44.708,78239.7
44.718,78257.9
44.728,78272.7
44.739,78294.7
44.749,78312.6
44.759,78332.2
44.769,78361.6
44.78,78392.1
44.79,78426.8
44.8,78465.5
44.81,78507.1
44.82,78553.2
44.83,78603.8
44.84,78658.5
44.851,78716.9
44.861,78775.9
44.871,78832.4
44.881,78886.1
44.891,78937
44.901,78984.5
44.912,79029.8
44.922,79073.6
44.932,79115.9
44.942,79153.6
44.952,79189.7
44.962,79224.3
44.973,79257.2
44.983,79289.3
44.993,79320.4
45.003,79349.3
45.013,79378.9
45.023,79406.6
45.034,79436.6
45.044,79463.6
45.054,79490.1
45.064,79513.1
45.074,79537
45.084,79558.3
45.094,79582.3
45.105,79603.2
45.115,79625.6
45.125,79647.1
45.135,79667.2
45.145,79689.7
45.155,79708.4
45.165,79731.4
45.176,79751.7
45.186,79773.2
45.196,79796.1
45.206,79816.3
45.216,79838
45.226,79856.8
45.236,79874.2
45.247,79893.5
45.257,79910.7
45.267,79928.2
45.277,79947.3
45.287,79963.6
45.297,79982.8
45.307,80002.2
45.318,80017.2
45.328,80038.3
45.338,80057.3
45.348,80073.4
45.358,80095.2
45.368,80113.8
45.378,80134.4
45.389,80156.2
45.399,80174.7
45.409,80195.5
45.419,80214
45.429,80228.6
45.439,80248.2
45.449,80265.1
45.46,80278.7
45.47,80298.5
45.48,80314.6
45.49,80329.6
45.5,80349.1
45.51,80366.5
45.52,80380.9
45.531,80401.7
45.541,80419.7
45.551,80435.7
45.561,80456.7
45.571,80474.9
45.581,80495.4
45.591,80516.9
45.602,80535.1
45.612,80556
45.622,80574.4
45.632,80589.3
45.642,80608.8
45.652,80625.9
45.663,80639.6
45.673,80659.5
45.683,80675.2
45.693,80690.3
45.703,80709.8
45.713,80726.6
45.723,80740.7
45.734,80761.4
45.744,80779.3
45.754,80794.4
45.764,80815.3
45.774,80832.6
45.784,80851.4
45.794,80872.4
45.805,80890.1
45.815,80908.9
45.825,80927.2
45.835,80940.9
45.845,80957.5
45.855,80974.5
45.865,80989.8
45.876,81003.1
45.886,81022.1
45.896,81037.1
45.906,81051.8
45.916,81071.2
45.926,81087.5
45.937,81102
45.947,81122.2
45.957,81140
45.967,81155.3
45.977,81176.3
45.987,81193.9
45.998,81213.6
46.008,81234.9
46.018,81252.7
46.028,81272.6
46.038,81291
46.048,81304.4
46.058,81323.3
46.069,81340.3
46.079,81354
46.089,81371.3
46.099,81388.4
46.109,81403.1
46.119,81420.6
46.129,81439.4
46.14,81453.5
46.15,81472
46.16,81490.4
46.17,81505.8
46.18,81525
46.19,81543.5
46.2,81560.5
46.211,81582.6
46.221,81602.5
46.231,81621.2
46.241,81641.3
46.251,81658
46.261,81674.4
46.271,81692.8
46.282,81709.2
46.292,81724.2
46.302,81743.5
46.312,81759.2
46.322,81775.8
46.332,81795.5
46.343,81810.9
46.353,81828.4
46.363,81847.6
46.373,81864.1
46.383,81882.2
46.393,81901.5
46.403,81918.6
46.414,81940.3
46.424,81960.4
46.434,81978.3
46.444,81998.3
46.454,82015.3
46.464,82029.3
46.474,82048.4
46.485,82065
46.495,82077.9
46.505,82097.3
46.515,82113.3
46.525,82127.7
46.535,82146.6
46.545,82164.1
46.556,82177.3
46.566,82197.5
46.576,82215.7
46.586,82230.2
46.596,82251.7
46.606,82269.8
46.616,82288.3
46.627,82310.4
46.637,82329
46.647,82348.5
46.657,82367.7
46.667,82382.1
46.677,82400.2
46.688,82417.2
46.698,82432.1
46.708,82448.1
46.718,82466.1
46.728,82481.1
46.738,82498
46.748,82516.9
46.759,82531.8
46.769,82549
46.779,82567.5
46.789,82583.7
46.799,82600.9
46.809,82620.6
46.819,82637.8
46.83,82659.1
46.84,82679.5
46.85,82697.3
46.86,82717.6
46.87,82734.9
46.88,82748.7
46.89,82767.7
46.901,82784.3
46.911,82796.9
46.921,82816.2
46.931,82832.3
46.941,82846.5
46.951,82865.2
46.961,82883
46.972,82896.2
46.982,82915.7
46.992,82933.7
47.002,82947.8
47.012,82967.8
47.022,82985.6
47.033,83002.2
47.043,83023.9
47.053,83042.3
47.063,83059.8
47.073,83079.3
47.083,83095.9
47.093,83109.5
47.104,83128.4
47.114,83144.9
47.124,83157.5
47.134,83176.7
47.144,83192.7
47.154,83207.2
47.165,83225.8
47.175,83243.3
47.185,83256.4
47.195,83276.1
47.205,83294.3
47.215,83308.5
47.225,83329.2
47.235,83347.1
47.246,83364.5
47.256,83386.9
47.266,83405.8
47.276,83424.8
47.286,83444.2
47.296,83459.6
47.306,83476.1
47.317,83493.3
47.327,83509.2
47.337,83522.8
47.347,83542
47.357,83557.3
47.367,83572.3
47.378,83591.4
47.388,83607.4
47.398,83621.1
47.408,83641.6
47.418,83659.4
47.428,83674.4
47.438,83695.4
47.449,83713.2
47.459,83732.8
47.469,83754.4
47.479,83772.6
47.489,83792.6
47.499,83811.4
47.51,83825
47.52,83844.5
47.53,83861.3
47.54,83875
47.55,83893.6
47.56,83910.2
47.57,83925
47.581,83943.2
47.591,83961.7
47.601,83975.4
47.611,83995.2
47.621,84013.7
47.631,84028.4
47.641,84049.4
47.652,84067.9
47.662,84086
47.672,84108.5
47.682,84127.4
47.692,84147
47.702,84166.4
47.713,84181.3
47.723,84199.4
47.733,84216.7
47.743,84231.9
47.753,84248
47.763,84266.2
47.773,84281.1
47.784,84298.1
47.794,84317
47.804,84331.7
47.814,84349.1
47.824,84368.2
47.834,84384.5
47.845,84402.9
47.855,84422.1
47.865,84439.5
47.875,84461.5
47.885,84481.5
47.895,84499.9
47.905,84520.1
47.916,84537.1
47.926,84552.6
47.936,84571.4
47.946,84588
47.956,84602
47.966,84621.4
47.976,84636.8
47.987,84652.1
47.997,84671.7
48.007,84687.8
48.017,84702.4
48.027,84722.5
48.037,84740.2
48.048,84755.9
48.058,84776.5
48.068,84794
48.078,84813.4
48.088,84834.9
48.098,84852.6
48.108,84872.7
48.119,84891.5
48.129,84905.3
48.139,84924.6
48.149,84941.7
48.159,84955.1
48.169,84973.5
48.18,84990.2
48.19,85004.7
48.2,85022.7
48.21,85040.8
48.22,85054.2
48.23,85072.8
48.24,85090.7
48.251,85105.7
48.261,85124.4
48.271,85143.2
48.281,85160
48.291,85182
48.301,85201.9
48.311,85220.4
48.321,85240.5
48.332,85257.3
48.342,85272.9
48.352,85291.4
48.362,85307.7
48.372,85321.4
48.382,85341
48.392,85356.6
48.403,85371.7
48.413,85391
48.423,85407.1
48.433,85420.9
48.443,85441
48.453,85458.5
48.463,85472.9
48.474,85493.9
48.484,85511.4
48.494,85529.6
48.504,85551.3
48.514,85569.1
48.524,85588.6
48.534,85607.5
48.545,85621.9
48.555,85640
48.565,85657.3
48.575,85672.4
48.585,85689
48.595,85706.9
48.606,85722
48.616,85739.2
48.626,85758.2
48.636,85772.8
48.646,85791.1
48.656,85810.1
48.667,85826
48.677,85846
48.687,85865.1
48.697,85882.6
48.707,85905.5
48.717,85925.1
48.728,85944.9
48.738,85965.2
48.748,85981.1
48.758,85999.3
48.768,86017.3
48.778,86032.8
48.789,86050.7
48.799,86068.6
48.809,86084.2
48.819,86102.6
48.829,86121.4
48.839,86135.4
48.849,86155.5
48.86,86174.2
48.87,86189.4
48.88,86211.1
48.89,86229.6
48.9,86248.4
48.91,86271
48.92,86289.7
48.931,86310.2
48.941,86329.7
48.951,86344.4
48.961,86364
48.971,86381.4
48.981,86395.7
48.991,86415.1
49.001,86432.3
49.012,86447.4
49.022,86466.9
49.032,86484.7
49.042,86498.5
49.052,86519
49.062,86537.1
49.072,86551.4
49.083,86572.7
49.093,86590.9
49.103,86609.5
49.113,86631.5
49.123,86649.8
49.133,86669.7
49.143,86688.6
49.154,86702.8
49.164,86721.2
49.174,86738.4
49.184,86753.1
49.194,86770.2
49.204,86787.6
49.214,86802.5
49.225,86820
49.235,86838.7
49.245,86852.8
49.255,86871.2
49.265,86889.6
49.275,86905.3
49.285,86923.7
49.296,86942.7
49.306,86959.8
49.316,86981.5
49.326,87001.2
49.336,87019
49.346,87039
49.356,87056
49.367,87070.5
49.377,87089.4
49.387,87105.8
49.397,87118.7
49.407,87138.1
49.417,87153.6
49.427,87167.7
49.438,87186.8
49.448,87204.2
49.458,87217.6
49.468,87237.6
49.478,87255.7
49.488,87269.8
49.499,87290.9
49.509,87308.8
49.519,87326.8
49.529,87349.2
49.539,87367.9
49.549,87387.5
49.559,87406.7
49.569,87421.6
49.58,87439.9
49.59,87457
49.6,87472.2
49.61,87488.4
49.62,87506.3
49.63,87521.6
49.641,87538.8
49.651,87557.6
49.661,87572.3
49.671,87589.8
49.681,87608.8
49.691,87624.9
49.702,87643.3
49.712,87662.4
49.722,87679.6
49.732,87701.6
49.742,87721.5
49.752,87739.7
49.763,87760.1
49.773,87776.9
49.783,87792.4
49.793,87811.1
49.803,87827.7
49.813,87841.6
49.823,87861.3
49.833,87877.1
49.844,87892.9
49.854,87912.5
49.864,87928.9
49.874,87944.8
49.884,87964.5
49.894,87981.7
49.905,87997.8
49.915,88018.1
49.925,88035.4
49.935,88055.6
49.945,88076.3
49.955,88094
49.965,88113.9
49.976,88132.3
49.986,88145.5
49.996,88164.9
50.006,88181.6
